%OpenBCI Raw EXG Data
%Number of channels = 8
%Sample Rate = 250 Hz
%Board = OpenBCI_GUI$BoardCytonSerial
Sample Index, EXG Channel 0, EXG Channel 1, EXG Channel 2, EXG Channel 3, EXG Channel 4, EXG Channel 5, EXG Channel 6, EXG Channel 7, Accel Channel 0, Accel Channel 1, Accel Channel 2, Not Used, Digital Channel 0 (D11), Digital Channel 1 (D12), Digital Channel 2 (D13), Digital Channel 3 (D17), Not Used, Digital Channel 4 (D18), Analog Channel 0, Analog Channel 1, Analog Channel 2, Timestamp, Marker Channel, Timestamp (Formatted)
0.0, 0.0, 0.0, 0.0, 0.0, 0.0, 0.0, 0.0, 0.0, -0.052000000000000005, 0.37, 0.9440000000000001, 192.0, 254.0, 96.0, 11.0, 144.0, 29.0, 128.0, 0.0, 0.0, 0.0, 1.7781158571311915E9, 0.0, 2026-05-06 18:04:17.131
1.0, -7842.98126017824, -7830.084303627527, -7824.853995424985, -8036.793236350208, -62878.631100491424, -58428.64464862879, -80083.3052496082, -141752.88578902316, -0.052000000000000005, 0.37, 0.9440000000000001, 192.0, 0.0, 0.0, 0.0, 0.0, 0.0, 0.0, 0.0, 0.0, 0.0, 1.7781158571472733E9, 0.0, 2026-05-06 18:04:17.147
2.0, -7841.327231088547, -7828.430274537835, -7823.31172505757, -8035.183910749425, -62876.954719657275, -58426.94591605019, -80081.62886877405, -141751.12000121118, -0.052000000000000005, 0.37, 0.9440000000000001, 192.0, 0.0, 0.0, 0.0, 0.0, 0.0, 0.0, 0.0, 0.0, 0.0, 1.778115857151238E9, 0.0, 2026-05-06 18:04:17.151
3.0, -7842.087190400028, -7829.12317861595, -7823.937573902318, -8035.854463083085, -62877.580568502024, -58427.5941166394, -80082.32177285216, -141751.76820180038, -0.052000000000000005, 0.37, 0.9440000000000001, 192.0, 0.0, 0.0, 0.0, 0.0, 0.0, 0.0, 0.0, 0.0, 0.0, 1.7781158571541305E9, 0.0, 2026-05-06 18:04:17.154
4.0, -7842.042486911117, -7829.12317861595, -7823.870518668952, -8035.809759594174, -62877.42410629083, -58427.48235791712, -80082.2994211077, -141751.6564430781, -0.052000000000000005, 0.37, 0.9440000000000001, 192.0, 0.0, 0.0, 0.0, 0.0, 0.0, 0.0, 0.0, 0.0, 0.0, 1.7781158571590724E9, 0.0, 2026-05-06 18:04:17.159
5.0, -7843.607109022989, -7830.643097238911, -7825.368085547458, -8037.30732647268, -62878.87696968043, -58428.823462584434, -80083.68522926394, -141753.0646029788, -0.052000000000000005, 0.37, 0.9440000000000001, 192.0, 0.0, 0.0, 0.0, 0.0, 0.0, 0.0, 0.0, 0.0, 0.0, 1.778115857162136E9, 0.0, 2026-05-06 18:04:17.162
6.0, -7844.724696245754, -7831.671277483854, -7826.508024514678, -8038.380210206535, -62879.97220515874, -58429.9410498072, -80084.75811299779, -141754.02572799037, -0.052000000000000005, 0.37, 0.9440000000000001, 192.0, 0.0, 0.0, 0.0, 0.0, 0.0, 0.0, 0.0, 0.0, 0.0, 1.778115857165256E9, 0.0, 2026-05-06 18:04:17.165
7.0, -7845.328193346048, -7832.364181561969, -7827.245632081704, -8039.140169518015, -62880.508647025665, -58430.61160214086, -80085.4510170759, -141754.71863206849, -0.052000000000000005, 0.37, 0.9440000000000001, 192.0, 0.0, 0.0, 0.0, 0.0, 0.0, 0.0, 0.0, 0.0, 0.0, 1.778115857170226E9, 0.0, 2026-05-06 18:04:17.170
8.0, -7845.842283468519, -7832.855919939986, -7827.7820739486315, -8039.676611384942, -62881.000385403684, -58431.08098877442, -80085.87570022055, -141755.07625997977, -0.008, 0.336, 0.9560000000000001, 192.0, 255.0, 192.0, 10.0, 128.0, 29.0, 224.0, 0.0, 0.0, 0.0, 1.7781158571743534E9, 0.0, 2026-05-06 18:04:17.174
9.0, -7844.545882290111, -7831.581870506034, -7826.440969281312, -8038.402561950989, -62879.56987375854, -58429.71753236265, -80084.53459555324, -141753.66810007908, -0.008, 0.336, 0.9560000000000001, 192.0, 0.0, 0.0, 0.0, 0.0, 0.0, 0.0, 0.0, 0.0, 0.0, 1.7781158571782491E9, 0.0, 2026-05-06 18:04:17.178
10.0, -7844.232957867737, -7831.2465943392035, -7826.016286136662, -8038.06728578416, -62879.055783636075, -58429.27049747354, -80084.1546158975, -141753.33282391226, -0.008, 0.336, 0.9560000000000001, 192.0, 0.0, 0.0, 0.0, 0.0, 0.0, 0.0, 0.0, 0.0, 0.0, 1.7781158571821988E9, 0.0, 2026-05-06 18:04:17.182
11.0, -7842.690687500321, -7829.8384344385195, -7824.518719258156, -8036.569718905655, -62877.580568502024, -58427.72822710613, -80082.58999378563, -141751.76820180038, -0.008, 0.336, 0.9560000000000001, 192.0, 0.0, 0.0, 0.0, 0.0, 0.0, 0.0, 0.0, 0.0, 0.0, 1.7781158571863475E9, 0.0, 2026-05-06 18:04:17.186
12.0, -7842.891853200419, -7829.927841416341, -7824.719884958254, -8036.659125883476, -62877.73703071321, -58427.70587536167, -80082.7017525079, -141751.92466401157, -0.008, 0.336, 0.9560000000000001, 192.0, 0.0, 0.0, 0.0, 0.0, 0.0, 0.0, 0.0, 0.0, 0.0, 1.7781158571902475E9, 0.0, 2026-05-06 18:04:17.190
13.0, -7841.975431677751, -7828.8996611713965, -7823.69170471331, -8035.720352616353, -62876.70885046826, -58426.61063988336, -80081.53946179623, -141750.82942853327, -0.008, 0.336, 0.9560000000000001, 192.0, 0.0, 0.0, 0.0, 0.0, 0.0, 0.0, 0.0, 0.0, 0.0, 1.7781158571932082E9, 0.0, 2026-05-06 18:04:17.193
14.0, -7838.712076987276, -7825.658658225377, -7820.45070176729, -8032.389942692512, -62873.42314403333, -58423.34728519288, -80078.23140361684, -141747.52137035388, -0.008, 0.336, 0.9560000000000001, 192.0, 0.0, 0.0, 0.0, 0.0, 0.0, 0.0, 0.0, 0.0, 0.0, 1.7781158571982324E9, 0.0, 2026-05-06 18:04:17.198
15.0, -7840.299050843603, -7827.290335570614, -7822.037675623617, -8033.842806082107, -62874.87600742293, -58424.8895555603, -80079.72897049534, -141748.97423374347, -0.008, 0.336, 0.9560000000000001, 192.0, 0.0, 0.0, 0.0, 0.0, 0.0, 0.0, 0.0, 0.0, 0.0, 1.7781158572022038E9, 0.0, 2026-05-06 18:04:17.202
16.0, -7842.310707844581, -7829.391399549413, -7824.205794835782, -8035.899166571995, -62876.842960935, -58426.83415732791, -80081.6959240074, -141750.963539, -0.008, 0.336, 0.9560000000000001, 192.0, 0.0, 0.0, 0.0, 0.0, 0.0, 0.0, 0.0, 0.0, 0.0, 1.7781158572062857E9, 0.0, 2026-05-06 18:04:17.206
17.0, -7843.607109022989, -7830.643097238911, -7825.457492525279, -8037.150864261493, -62878.18406560231, -58428.08585501741, -80082.9476216969, -141752.17053320058, -0.008, 0.336, 0.9560000000000001, 192.0, 0.0, 0.0, 0.0, 0.0, 0.0, 0.0, 0.0, 0.0, 0.0, 1.7781158572102823E9, 0.0, 2026-05-06 18:04:17.210
18.0, -7841.148417132905, -7828.139701859916, -7822.864690168463, -8034.692172371409, -62875.546559756585, -58425.4930526606, -80080.3548193401, -141749.53302735486, 0.008, 0.31, 0.9520000000000001, 192.0, 0.0, 64.0, 9.0, 176.0, 29.0, 192.0, 0.0, 0.0, 0.0, 1.778115857214308E9, 0.0, 2026-05-06 18:04:17.214
19.0, -7840.567271777067, -7827.491501270712, -7822.417655279358, -8034.178082248936, -62874.80895218956, -58424.93425904921, -80079.7513222398, -141748.81777153228, 0.008, 0.31, 0.9520000000000001, 192.0, 0.0, 0.0, 0.0, 0.0, 0.0, 0.0, 0.0, 0.0, 0.0, 1.7781158572182505E9, 0.0, 2026-05-06 18:04:17.218
20.0, -7840.455513054791, -7827.379742548435, -7822.372951790447, -8034.133378760026, -62874.67484172283, -58424.80014858248, -80079.63956351753, -141748.63895757665, 0.008, 0.31, 0.9520000000000001, 192.0, 0.0, 0.0, 0.0, 0.0, 0.0, 0.0, 0.0, 0.0, 0.0, 1.7781158572212553E9, 0.0, 2026-05-06 18:04:17.221
21.0, -7842.355411333491, -7829.279640827137, -7824.205794835782, -8035.899166571995, -62876.50768476817, -58426.56593639445, -80081.42770307395, -141750.5612075998, 0.008, 0.31, 0.9520000000000001, 192.0, 0.0, 0.0, 0.0, 0.0, 0.0, 0.0, 0.0, 0.0, 0.0, 1.7781158572263067E9, 0.0, 2026-05-06 18:04:17.226
22.0, -7843.651812511899, -7830.531338516634, -7825.479844269735, -8037.150864261493, -62877.6923272243, -58427.75057885058, -80082.56764204118, -141751.72349831148, 0.008, 0.31, 0.9520000000000001, 192.0, 0.0, 0.0, 0.0, 0.0, 0.0, 0.0, 0.0, 0.0, 0.0, 1.778115857230203E9, 0.0, 2026-05-06 18:04:17.230
23.0, -7843.517702045167, -7830.285469327626, -7825.16691984736, -8036.994402050305, -62877.46880977975, -58427.571764894936, -80082.36647634108, -141751.4999808669, 0.008, 0.31, 0.9520000000000001, 192.0, 0.0, 0.0, 0.0, 0.0, 0.0, 0.0, 0.0, 0.0, 0.0, 1.7781158572343926E9, 0.0, 2026-05-06 18:04:17.234
24.0, -7842.802446222598, -7829.681972227332, -7824.518719258156, -8036.301497972191, -62876.77590570163, -58426.94591605019, -80081.74062749633, -141750.74002155542, 0.008, 0.31, 0.9520000000000001, 192.0, 0.0, 0.0, 0.0, 0.0, 0.0, 0.0, 0.0, 0.0, 0.0, 1.7781158572383068E9, 0.0, 2026-05-06 18:04:17.238
25.0, -7844.07649565655, -7831.045428639106, -7825.926879158841, -8037.620250895054, -62878.04995513558, -58428.17526199523, -80083.08173216364, -141751.947015756, 0.008, 0.31, 0.9520000000000001, 192.0, 0.0, 0.0, 0.0, 0.0, 0.0, 0.0, 0.0, 0.0, 0.0, 1.77811585724432E9, 0.0, 2026-05-06 18:04:17.244
26.0, -7840.008478165684, -7826.932707659329, -7821.83650992352, -8033.574585148644, -62873.82547543353, -58423.97313403763, -80078.96901118387, -141747.7448877984, 0.008, 0.31, 0.9520000000000001, 192.0, 0.0, 0.0, 0.0, 0.0, 0.0, 0.0, 0.0, 0.0, 0.0, 1.7781158572472491E9, 0.0, 2026-05-06 18:04:17.247
27.0, -7840.03082991014, -7826.8433006815085, -7821.814158179064, -8033.552233404188, -62873.6913649668, -58423.90607880427, -80078.83490071713, -141747.63312907616, 0.008, 0.31, 0.9520000000000001, 192.0, 0.0, 0.0, 0.0, 0.0, 0.0, 0.0, 0.0, 0.0, 0.0, 1.7781158572504025E9, 0.0, 2026-05-06 18:04:17.250
28.0, -7840.3437543325135, -7827.111521614972, -7822.015323879162, -8033.798102593197, -62873.91488241135, -58424.12959624882, -80079.01371467278, -141747.92370175407, 0.004, 0.306, 0.9560000000000001, 192.0, 0.0, 32.0, 9.0, 144.0, 29.0, 224.0, 0.0, 0.0, 0.0, 1.778115857254268E9, 0.0, 2026-05-06 18:04:17.254
29.0, -7841.483693299734, -7828.229108837737, -7823.132911101928, -8034.915689815962, -62874.96541440075, -58425.15777649377, -80080.08659840663, -141748.92953025457, 0.004, 0.306, 0.9560000000000001, 192.0, 0.0, 0.0, 0.0, 0.0, 0.0, 0.0, 0.0, 0.0, 0.0, 1.7781158572582836E9, 0.0, 2026-05-06 18:04:17.258
30.0, -7841.461341555279, -7828.2514605821925, -7823.110559357472, -8034.915689815962, -62874.89835916738, -58425.0907212604, -80080.06424666218, -141748.81777153228, 0.004, 0.306, 0.9560000000000001, 192.0, 0.0, 0.0, 0.0, 0.0, 0.0, 0.0, 0.0, 0.0, 0.0, 1.7781158572623367E9, 0.0, 2026-05-06 18:04:17.262
31.0, -7841.461341555279, -7828.40792279338, -7823.177614590838, -8034.982745049328, -62874.92071091184, -58425.13542474931, -80079.97483968435, -141748.7954197878, 0.004, 0.306, 0.9560000000000001, 192.0, 0.0, 0.0, 0.0, 0.0, 0.0, 0.0, 0.0, 0.0, 0.0, 1.7781158572662761E9, 0.0, 2026-05-06 18:04:17.266
32.0, -7842.64598401141, -7829.637268738422, -7824.3175535580585, -8036.100332272093, -62876.10535336797, -58426.253011972076, -80081.15948214049, -141749.86830352168, 0.004, 0.306, 0.9560000000000001, 192.0, 0.0, 0.0, 0.0, 0.0, 0.0, 0.0, 0.0, 0.0, 0.0, 1.7781158572702956E9, 0.0, 2026-05-06 18:04:17.270
33.0, -7842.6012805225, -7829.570213505056, -7824.384608791424, -8036.145035761004, -62876.038298134605, -58426.1412532498, -80081.18183388494, -141749.9130070106, 0.004, 0.306, 0.9560000000000001, 192.0, 0.0, 0.0, 0.0, 0.0, 0.0, 0.0, 0.0, 0.0, 0.0, 1.7781158572743397E9, 0.0, 2026-05-06 18:04:17.274
34.0, -7841.617803766466, -7828.609088493477, -7823.35642854648, -8035.16155900497, -62874.9430626563, -58425.02366602703, -80080.01954317326, -141748.77306804337, 0.004, 0.306, 0.9560000000000001, 192.0, 0.0, 0.0, 0.0, 0.0, 0.0, 0.0, 0.0, 0.0, 0.0, 1.7781158572773693E9, 0.0, 2026-05-06 18:04:17.277
35.0, -7840.567271777067, -7827.402094292891, -7822.238841323715, -8034.021620037749, -62873.78077194462, -58423.8390235709, -80078.72314199485, -141747.58842558725, 0.004, 0.306, 0.9560000000000001, 192.0, 0.0, 0.0, 0.0, 0.0, 0.0, 0.0, 0.0, 0.0, 0.0, 1.778115857283308E9, 0.0, 2026-05-06 18:04:17.283
36.0, -7842.511873544679, -7829.346696060503, -7824.250498324693, -8036.033277038727, -62875.72537371223, -58425.80597708297, -80080.62304027355, -141749.53302735486, 0.004, 0.306, 0.9560000000000001, 192.0, 0.0, 0.0, 0.0, 0.0, 0.0, 0.0, 0.0, 0.0, 0.0, 1.778115857286384E9, 0.0, 2026-05-06 18:04:17.286
37.0, -7844.903510201396, -7831.7159809727655, -7826.642134981411, -8038.380210206535, -62878.02760339113, -58428.10820676186, -80083.01467693028, -141751.83525703376, 0.004, 0.306, 0.9560000000000001, 192.0, 0.0, 0.0, 0.0, 0.0, 0.0, 0.0, 0.0, 0.0, 0.0, 1.7781158572903452E9, 0.0, 2026-05-06 18:04:17.290
38.0, -7846.334021846536, -7833.3029548290915, -7828.094998371005, -8039.900128829495, -62879.43576329181, -58429.605773640375, -80084.48989206433, -141753.24341693442, 0.024, 0.296, 0.9500000000000001, 192.0, 0.0, 192.0, 9.0, 64.0, 29.0, 176.0, 0.0, 0.0, 0.0, 1.7781158572942908E9, 0.0, 2026-05-06 18:04:17.294
39.0, -7846.199911379804, -7833.213547851271, -7827.983239648729, -8039.721314873853, -62879.16754235835, -58429.404607940276, -80084.33342985314, -141752.9975477454, 0.024, 0.296, 0.9500000000000001, 192.0, 0.0, 0.0, 0.0, 0.0, 0.0, 0.0, 0.0, 0.0, 0.0, 1.7781158572983875E9, 0.0, 2026-05-06 18:04:17.298
40.0, -7844.679992756844, -7831.559518761578, -7826.3739140479465, -8038.134341017526, -62877.60292024648, -58427.772930595034, -80082.67940076345, -141751.23175993346, 0.024, 0.296, 0.9500000000000001, 192.0, 0.0, 0.0, 0.0, 0.0, 0.0, 0.0, 0.0, 0.0, 0.0, 1.778115857302396E9, 0.0, 2026-05-06 18:04:17.302
41.0, -7845.842283468519, -7832.677105984343, -7827.625611737444, -8039.453093940389, -62878.78756270261, -58428.93522130671, -80083.84169147513, -141752.4164023896, 0.024, 0.296, 0.9500000000000001, 192.0, 0.0, 0.0, 0.0, 0.0, 0.0, 0.0, 0.0, 0.0, 0.0, 1.7781158573054693E9, 0.0, 2026-05-06 18:04:17.305
42.0, -7845.842283468519, -7832.6547542398885, -7827.647963481899, -8039.408390451478, -62878.765210958154, -58428.73405560661, -80083.81933973066, -141752.39405064512, 0.024, 0.296, 0.9500000000000001, 192.0, 0.0, 0.0, 0.0, 0.0, 0.0, 0.0, 0.0, 0.0, 0.0, 1.7781158573093667E9, 0.0, 2026-05-06 18:04:17.309
43.0, -7846.222263124259, -7833.012382151173, -7827.9608879042735, -8039.788370107219, -62879.055783636075, -58429.0916835179, -80084.10991240859, -141752.6622715786, 0.024, 0.296, 0.9500000000000001, 192.0, 0.0, 0.0, 0.0, 0.0, 0.0, 0.0, 0.0, 0.0, 0.0, 1.7781158573153615E9, 0.0, 2026-05-06 18:04:17.315
44.0, -7846.959870691285, -7833.682934484832, -7828.631440237933, -8040.414218951967, -62879.52517026963, -58429.672828873736, -80084.66870601996, -141753.24341693442, 0.024, 0.296, 0.9500000000000001, 192.0, 0.0, 0.0, 0.0, 0.0, 0.0, 0.0, 0.0, 0.0, 0.0, 1.7781158573183892E9, 0.0, 2026-05-06 18:04:17.318
45.0, -7846.244614868715, -7833.012382151173, -7827.871480926452, -8039.698963129397, -62878.72050746924, -58428.93522130671, -80083.86404321958, -141752.48345762296, 0.024, 0.296, 0.9500000000000001, 192.0, 0.0, 0.0, 0.0, 0.0, 0.0, 0.0, 0.0, 0.0, 0.0, 1.7781158573224115E9, 0.0, 2026-05-06 18:04:17.322
46.0, -7845.93169044634, -7832.699457728799, -7827.558556504078, -8039.408390451478, -62878.3405278135, -58428.53288990651, -80083.46171181939, -141752.0140709894, 0.024, 0.296, 0.9500000000000001, 192.0, 0.0, 0.0, 0.0, 0.0, 0.0, 0.0, 0.0, 0.0, 0.0, 1.7781158573255253E9, 0.0, 2026-05-06 18:04:17.325
47.0, -7848.323327103059, -7835.0016874076955, -7829.927841416341, -8041.732971874831, -62880.665109236856, -58430.857471329866, -80085.78629324274, -141754.22689369047, 0.024, 0.296, 0.9500000000000001, 192.0, 0.0, 0.0, 0.0, 0.0, 0.0, 0.0, 0.0, 0.0, 0.0, 1.778115857329554E9, 0.0, 2026-05-06 18:04:17.329
48.0, -7846.736353246732, -7833.437065295824, -7828.40792279338, -8040.168349762959, -62879.055783636075, -58429.248145729085, -80084.26637461978, -141752.68462332306, 0.044, 0.296, 0.9560000000000001, 192.0, 1.0, 96.0, 9.0, 64.0, 29.0, 224.0, 0.0, 0.0, 0.0, 1.7781158573334289E9, 0.0, 2026-05-06 18:04:17.333
49.0, -7847.429257324846, -7834.21937635176, -7829.12317861595, -8040.950660818895, -62879.63692899191, -58429.91869806275, -80084.91457520898, -141753.28812042333, 0.044, 0.296, 0.9560000000000001, 192.0, 0.0, 0.0, 0.0, 0.0, 0.0, 0.0, 0.0, 0.0, 0.0, 1.7781158573375213E9, 0.0, 2026-05-06 18:04:17.337
50.0, -7848.122161402961, -7834.800521707598, -7829.726675716242, -8041.576509663643, -62880.12866736993, -58430.41043644076, -80085.42866533145, -141753.77985880137, 0.044, 0.296, 0.9560000000000001, 192.0, 0.0, 0.0, 0.0, 0.0, 0.0, 0.0, 0.0, 0.0, 0.0, 1.7781158573436496E9, 0.0, 2026-05-06 18:04:17.343
51.0, -7843.584757278533, -7830.151358860894, -7825.099864613994, -8036.994402050305, -62875.479504523224, -58425.694218360695, -80080.86890946256, -141749.1083442102, 0.044, 0.296, 0.9560000000000001, 192.0, 0.0, 0.0, 0.0, 0.0, 0.0, 0.0, 0.0, 0.0, 0.0, 1.778115857346543E9, 0.0, 2026-05-06 18:04:17.346
52.0, -7843.472998556256, -7829.972544905251, -7825.032809380628, -8036.882643328028, -62875.278338823126, -58425.4930526606, -80080.69009550693, -141748.8624750212, 0.044, 0.296, 0.9560000000000001, 192.0, 0.0, 0.0, 0.0, 0.0, 0.0, 0.0, 0.0, 0.0, 0.0, 1.7781158573504553E9, 0.0, 2026-05-06 18:04:17.350
53.0, -7842.936556689329, -7829.50315827169, -7824.4963675137005, -8036.2791462277355, -62874.67484172283, -58424.911907304755, -80080.06424666218, -141748.23662617645, 0.044, 0.296, 0.9560000000000001, 192.0, 0.0, 0.0, 0.0, 0.0, 0.0, 0.0, 0.0, 0.0, 0.0, 1.7781158573544452E9, 0.0, 2026-05-06 18:04:17.354
54.0, -7843.8082747230865, -7830.486635027723, -7825.390437291913, -8037.284974728224, -62875.52420801213, -58425.80597708297, -80080.95831644039, -141749.13069595466, 0.044, 0.296, 0.9560000000000001, 192.0, 0.0, 0.0, 0.0, 0.0, 0.0, 0.0, 0.0, 0.0, 0.0, 1.7781158573574421E9, 0.0, 2026-05-06 18:04:17.357
55.0, -7846.378725335447, -7832.990030406718, -7827.849129181997, -8039.833073596129, -62877.96054815776, -58428.21996548414, -80083.37230484156, -141751.6564430781, 0.044, 0.296, 0.9560000000000001, 192.0, 0.0, 0.0, 0.0, 0.0, 0.0, 0.0, 0.0, 0.0, 0.0, 1.7781158573614552E9, 0.0, 2026-05-06 18:04:17.361
56.0, -7846.624594524455, -7833.191196106815, -7828.050294882095, -8039.944832318406, -62878.11701036895, -58428.4434829287, -80083.43936007493, -141751.8129052893, 0.044, 0.296, 0.9560000000000001, 192.0, 0.0, 0.0, 0.0, 0.0, 0.0, 0.0, 0.0, 0.0, 0.0, 1.77811585736569E9, 0.0, 2026-05-06 18:04:17.365
57.0, -7845.059972412583, -7831.6489257394, -7826.396265792402, -8038.3355067176235, -62876.41827779035, -58426.789453839, -80081.8523862186, -141750.06946922178, 0.044, 0.296, 0.9560000000000001, 192.0, 0.0, 0.0, 0.0, 0.0, 0.0, 0.0, 0.0, 0.0, 0.0, 1.7781158573704395E9, 0.0, 2026-05-06 18:04:17.370
58.0, -7843.025963667151, -7829.570213505056, -7824.362257046969, -8036.4579601833775, -62874.428972533824, -58424.80014858248, -80079.90778445099, -141747.9460534985, 0.044, 0.296, 0.9560000000000001, 192.0, 0.0, 0.0, 0.0, 0.0, 0.0, 0.0, 0.0, 0.0, 0.0, 1.7781158573745835E9, 0.0, 2026-05-06 18:04:17.374
59.0, -7841.483693299734, -7828.027943137639, -7822.9093936573745, -8034.893338071506, -62872.8419986775, -58423.12376774833, -80078.32081059465, -141746.38143138666, 0.046, 0.296, 0.9540000000000001, 192.0, 1.0, 112.0, 9.0, 64.0, 29.0, 208.0, 0.0, 0.0, 0.0, 1.7781158573784275E9, 0.0, 2026-05-06 18:04:17.378
60.0, -7839.986126421229, -7826.508024514678, -7821.434178523324, -8033.373419448545, -62871.232673076716, -58421.51444214755, -80076.73383673833, -141744.72740229697, 0.046, 0.296, 0.9540000000000001, 192.0, 0.0, 0.0, 0.0, 0.0, 0.0, 0.0, 0.0, 0.0, 0.0, 1.778115857381637E9, 0.0, 2026-05-06 18:04:17.381
61.0, -7842.8695014559635, -7829.279640827137, -7824.205794835782, -8036.21209099437, -62874.02664113363, -58424.2413549711, -80079.46074956188, -141747.47666686497, 0.046, 0.296, 0.9540000000000001, 192.0, 0.0, 0.0, 0.0, 0.0, 0.0, 0.0, 0.0, 0.0, 0.0, 1.7781158573855555E9, 0.0, 2026-05-06 18:04:17.385
62.0, -7844.210606123282, -7830.643097238911, -7825.524547758645, -8037.508492172778, -62875.25598707867, -58425.44834917168, -80080.73479899584, -141748.81777153228, 0.046, 0.296, 0.9540000000000001, 192.0, 0.0, 0.0, 0.0, 0.0, 0.0, 0.0, 0.0, 0.0, 0.0, 1.7781158573894691E9, 0.0, 2026-05-06 18:04:17.389
63.0, -7840.477864799245, -7826.932707659329, -7821.814158179064, -8033.708695615375, -62871.34443179899, -58421.67090435874, -80076.86794720507, -141744.97327148597, 0.046, 0.296, 0.9540000000000001, 192.0, 0.0, 0.0, 0.0, 0.0, 0.0, 0.0, 0.0, 0.0, 0.0, 1.7781158573936968E9, 0.0, 2026-05-06 18:04:17.393
64.0, -7842.444818311313, -7828.877309426941, -7823.758759946676, -8035.698000871897, -62873.2890335666, -58423.61550612635, -80078.87960420604, -141746.8061145313, 0.046, 0.296, 0.9540000000000001, 192.0, 0.0, 0.0, 0.0, 0.0, 0.0, 0.0, 0.0, 0.0, 0.0, 1.7781158573975093E9, 0.0, 2026-05-06 18:04:17.397
65.0, -7843.852978211997, -7830.374876305446, -7825.16691984736, -8037.262622983769, -62874.83130393402, -58425.02366602703, -80080.3548193401, -141748.3036814098, 0.046, 0.296, 0.9540000000000001, 192.0, 0.0, 0.0, 0.0, 0.0, 0.0, 0.0, 0.0, 0.0, 0.0, 1.7781158574025617E9, 0.0, 2026-05-06 18:04:17.402
66.0, -7843.003611922695, -7829.525510016145, -7824.228146580237, -8036.323849716646, -62873.82547543353, -58424.017837526546, -80079.3489908396, -141747.2978529093, 0.046, 0.296, 0.9540000000000001, 192.0, 0.0, 0.0, 0.0, 0.0, 0.0, 0.0, 0.0, 0.0, 0.0, 1.778115857406597E9, 0.0, 2026-05-06 18:04:17.406
67.0, -7843.920033445363, -7830.419579794358, -7825.189271591816, -8037.195567750403, -62874.719545211745, -58424.93425904921, -80080.1983571289, -141748.12486745417, 0.046, 0.296, 0.9540000000000001, 192.0, 0.0, 0.0, 0.0, 0.0, 0.0, 0.0, 0.0, 0.0, 0.0, 1.7781158574094636E9, 0.0, 2026-05-06 18:04:17.409
68.0, -7843.472998556256, -7829.972544905251, -7824.697533213799, -8036.614422394565, -62874.20545508927, -58424.46487241565, -80079.7960257287, -141747.67783256507, 0.046, 0.296, 0.9540000000000001, 192.0, 0.0, 0.0, 0.0, 0.0, 0.0, 0.0, 0.0, 0.0, 0.0, 1.7781158574135115E9, 0.0, 2026-05-06 18:04:17.413
69.0, -7843.1600741338825, -7829.704323971788, -7824.362257046969, -8036.323849716646, -62873.803123689075, -58424.040189271, -80079.41604607298, -141747.27550116487, 0.064, 0.306, 0.9540000000000001, 192.0, 2.0, 0.0, 9.0, 144.0, 29.0, 208.0, 0.0, 0.0, 0.0, 1.7781158574175224E9, 0.0, 2026-05-06 18:04:17.417
70.0, -7842.780094478142, -7829.346696060503, -7823.915222157863, -8036.033277038727, -62873.2890335666, -58423.57080263744, -80078.9466594394, -141746.78376278686, 0.064, 0.306, 0.9540000000000001, 192.0, 0.0, 0.0, 0.0, 0.0, 0.0, 0.0, 0.0, 0.0, 0.0, 1.7781158574215226E9, 0.0, 2026-05-06 18:04:17.421
71.0, -7841.304879344092, -7827.759722204176, -7822.4400070238125, -8034.4463031824, -62871.567949243545, -58421.96147703665, -80077.31498209418, -141745.08503020825, 0.064, 0.306, 0.9540000000000001, 192.0, 0.0, 0.0, 0.0, 0.0, 0.0, 0.0, 0.0, 0.0, 0.0, 1.778115857426624E9, 0.0, 2026-05-06 18:04:17.426
72.0, -7841.595452022011, -7828.184405348827, -7822.797634935097, -8034.736875860319, -62871.858521921466, -58422.252049714574, -80077.53849953873, -141745.3085476528, 0.064, 0.306, 0.9540000000000001, 192.0, 0.0, 0.0, 0.0, 0.0, 0.0, 0.0, 0.0, 0.0, 0.0, 1.7781158574305258E9, 0.0, 2026-05-06 18:04:17.430
73.0, -7844.255309612193, -7830.844262939008, -7825.546899503101, -8037.441436939412, -62874.49602776719, -58424.86720381585, -80080.17600538445, -141747.96840524298, 0.064, 0.306, 0.9540000000000001, 192.0, 0.0, 0.0, 0.0, 0.0, 0.0, 0.0, 0.0, 0.0, 0.0, 1.7781158574345477E9, 0.0, 2026-05-06 18:04:17.434
74.0, -7844.724696245754, -7831.291297828115, -7826.060989625573, -8037.955527061883, -62874.9430626563, -58425.269535216044, -80080.69009550693, -141748.41544013208, 0.064, 0.306, 0.9540000000000001, 192.0, 0.0, 0.0, 0.0, 0.0, 0.0, 0.0, 0.0, 0.0, 0.0, 1.7781158574375606E9, 0.0, 2026-05-06 18:04:17.437
75.0, -7843.495350300712, -7830.106655371983, -7824.853995424985, -8036.703829372386, -62873.71371671125, -58424.10724450437, -80079.46074956188, -141747.0966872092, 0.064, 0.306, 0.9540000000000001, 192.0, 0.0, 0.0, 0.0, 0.0, 0.0, 0.0, 0.0, 0.0, 0.0, 1.7781158574416091E9, 0.0, 2026-05-06 18:04:17.441
76.0, -7841.483693299734, -7828.0726466265505, -7822.752931446187, -8034.669820626953, -62871.567949243545, -58422.02853227002, -80077.42674081645, -141745.08503020825, 0.064, 0.306, 0.9540000000000001, 192.0, 0.0, 0.0, 0.0, 0.0, 0.0, 0.0, 0.0, 0.0, 0.0, 1.7781158574456031E9, 0.0, 2026-05-06 18:04:17.445
77.0, -7844.165902634371, -7830.844262939008, -7825.412789036369, -8037.374381706046, -62874.18310334482, -58424.57663113793, -80080.08659840663, -141747.7448877984, 0.064, 0.306, 0.9540000000000001, 192.0, 0.0, 0.0, 0.0, 0.0, 0.0, 0.0, 0.0, 0.0, 0.0, 1.7781158574497223E9, 0.0, 2026-05-06 18:04:17.449
78.0, -7845.305841601592, -7831.917146672863, -7826.508024514678, -8038.447265439901, -62875.30069056758, -58425.60481138287, -80081.09242690713, -141748.70601281, 0.064, 0.306, 0.9540000000000001, 192.0, 0.0, 0.0, 0.0, 0.0, 0.0, 0.0, 0.0, 0.0, 0.0, 1.7781158574536273E9, 0.0, 2026-05-06 18:04:17.453
79.0, -7845.127027645949, -7831.760684461676, -7826.284507070126, -8038.223747995347, -62875.121876611935, -58425.42599742723, -80080.8465577181, -141748.5048471099, 0.054, 0.312, 0.962, 192.0, 1.0, 176.0, 9.0, 192.0, 30.0, 16.0, 0.0, 0.0, 0.0, 1.778115857458574E9, 0.0, 2026-05-06 18:04:17.458
80.0, -7844.724696245754, -7831.179539105838, -7825.83747218102, -8037.709657872875, -62874.5407312561, -58424.95661079367, -80080.28776410673, -141747.96840524298, 0.054, 0.312, 0.962, 192.0, 0.0, 0.0, 0.0, 0.0, 0.0, 0.0, 0.0, 0.0, 0.0, 1.7781158574626553E9, 0.0, 2026-05-06 18:04:17.462
81.0, -7844.702344501298, -7831.090132128016, -7825.815120436564, -8037.821416595151, -62874.40662078937, -58424.8895555603, -80080.28776410673, -141747.8566465207, 0.054, 0.312, 0.962, 192.0, 0.0, 0.0, 0.0, 0.0, 0.0, 0.0, 0.0, 0.0, 0.0, 1.7781158574655921E9, 0.0, 2026-05-06 18:04:17.465
82.0, -7843.9870886787285, -7830.464283283268, -7825.077512869539, -8037.150864261493, -62873.71371671125, -58424.040189271, -80079.52780479525, -141747.0519837203, 0.054, 0.312, 0.962, 192.0, 0.0, 0.0, 0.0, 0.0, 0.0, 0.0, 0.0, 0.0, 0.0, 1.7781158574695888E9, 0.0, 2026-05-06 18:04:17.469
83.0, -7842.936556689329, -7829.458454782779, -7824.0269808801395, -8036.100332272093, -62872.685536466306, -58422.94495379269, -80078.41021757248, -141745.86734126418, 0.054, 0.312, 0.962, 192.0, 0.0, 0.0, 0.0, 0.0, 0.0, 0.0, 0.0, 0.0, 0.0, 1.7781158574737587E9, 0.0, 2026-05-06 18:04:17.473
84.0, -7841.304879344092, -7827.759722204176, -7822.305896557081, -8034.4015996934895, -62870.85269342097, -58421.201517725174, -80076.66678150497, -141743.96744298548, 0.054, 0.312, 0.962, 192.0, 0.0, 0.0, 0.0, 0.0, 0.0, 0.0, 0.0, 0.0, 0.0, 1.7781158574775608E9, 0.0, 2026-05-06 18:04:17.477
85.0, -7841.528396788645, -7827.9608879042735, -7822.596469235, -8034.647468882498, -62871.03150737662, -58421.38033168082, -80076.82324371615, -141744.28036740786, 0.054, 0.312, 0.962, 192.0, 0.0, 0.0, 0.0, 0.0, 0.0, 0.0, 0.0, 0.0, 0.0, 1.7781158574815676E9, 0.0, 2026-05-06 18:04:17.481
86.0, -7844.300013101103, -7830.665448983365, -7825.390437291913, -8037.441436939412, -62873.64666147789, -58424.08489275991, -80079.52780479525, -141746.8955215091, 0.054, 0.312, 0.962, 192.0, 0.0, 0.0, 0.0, 0.0, 0.0, 0.0, 0.0, 0.0, 0.0, 1.778115857486662E9, 0.0, 2026-05-06 18:04:17.486
87.0, -7844.501178801201, -7830.821911194553, -7825.613954736466, -8037.597899150598, -62873.803123689075, -58424.2413549711, -80079.63956351753, -141746.98492848696, 0.054, 0.312, 0.962, 192.0, 0.0, 0.0, 0.0, 0.0, 0.0, 0.0, 0.0, 0.0, 0.0, 1.7781158574906683E9, 0.0, 2026-05-06 18:04:17.490
88.0, -7845.88698695743, -7832.1853676063265, -7826.910355914874, -8038.961355562372, -62875.01011788966, -58425.51540440505, -80080.98066818484, -141748.32603315427, 0.054, 0.312, 0.962, 192.0, 0.0, 0.0, 0.0, 0.0, 0.0, 0.0, 0.0, 0.0, 0.0, 1.7781158574936469E9, 0.0, 2026-05-06 18:04:17.493
89.0, -7846.378725335447, -7832.699457728799, -7827.402094292891, -8039.475445684844, -62875.43480103431, -58425.91773580525, -80081.53946179623, -141748.7954197878, 0.052000000000000005, 0.28800000000000003, 0.9540000000000001, 192.0, 1.0, 160.0, 9.0, 0.0, 29.0, 208.0, 0.0, 0.0, 0.0, 1.7781158574976122E9, 0.0, 2026-05-06 18:04:17.497
90.0, -7845.9763939352515, -7832.297126328604, -7826.97741114824, -8039.006059051283, -62875.01011788966, -58425.4930526606, -80081.09242690713, -141748.32603315427, 0.052000000000000005, 0.28800000000000003, 0.9540000000000001, 192.0, 0.0, 0.0, 0.0, 0.0, 0.0, 0.0, 0.0, 0.0, 0.0, 1.778115857501602E9, 0.0, 2026-05-06 18:04:17.501
91.0, -7846.579891035544, -7832.990030406718, -7827.670315226354, -8039.7436666183075, -62875.65831847886, -58426.1412532498, -80081.76297924078, -141748.9965854879, 0.052000000000000005, 0.28800000000000003, 0.9540000000000001, 192.0, 0.0, 0.0, 0.0, 0.0, 0.0, 0.0, 0.0, 0.0, 0.0, 1.7781158575057125E9, 0.0, 2026-05-06 18:04:17.505
92.0, -7847.138684646927, -7833.526472273645, -7828.229108837737, -8040.235404996325, -62876.15005685688, -58426.61063988336, -80082.21001412989, -141749.46597212148, 0.052000000000000005, 0.28800000000000003, 0.9540000000000001, 192.0, 0.0, 0.0, 0.0, 0.0, 0.0, 0.0, 0.0, 0.0, 0.0, 1.7781158575106573E9, 0.0, 2026-05-06 18:04:17.510
93.0, -7846.557539291089, -7832.922975173352, -7827.603259992989, -8039.631907896031, -62875.45715277877, -58425.98479103861, -80081.56181354068, -141748.72836455447, 0.052000000000000005, 0.28800000000000003, 0.9540000000000001, 192.0, 0.0, 0.0, 0.0, 0.0, 0.0, 0.0, 0.0, 0.0, 0.0, 1.7781158575157533E9, 0.0, 2026-05-06 18:04:17.515
94.0, -7844.165902634371, -7830.508986772179, -7825.12221635845, -8037.262622983769, -62872.93140565532, -58423.52609914853, -80079.05841816169, -141746.22496917547, 0.052000000000000005, 0.28800000000000003, 0.9540000000000001, 192.0, 0.0, 0.0, 0.0, 0.0, 0.0, 0.0, 0.0, 0.0, 0.0, 1.778115857518635E9, 0.0, 2026-05-06 18:04:17.518
95.0, -7845.9763939352515, -7832.274774584148, -7826.999762892696, -8039.073114284649, -62874.719545211745, -58425.24718347158, -80080.73479899584, -141747.87899826517, 0.052000000000000005, 0.28800000000000003, 0.9540000000000001, 192.0, 0.0, 0.0, 0.0, 0.0, 0.0, 0.0, 0.0, 0.0, 0.0, 1.7781158575228431E9, 0.0, 2026-05-06 18:04:17.522
96.0, -7847.518664302667, -7833.682934484832, -7828.430274537835, -8040.5036259297885, -62876.12770511243, -58426.588288138904, -80082.07590366315, -141749.28715816585, 0.052000000000000005, 0.28800000000000003, 0.9540000000000001, 192.0, 0.0, 0.0, 0.0, 0.0, 0.0, 0.0, 0.0, 0.0, 0.0, 1.7781158575258636E9, 0.0, 2026-05-06 18:04:17.525
97.0, -7845.372896834958, -7831.447760039301, -7826.217451836759, -8038.223747995347, -62873.75842020017, -58424.26370671555, -80079.90778445099, -141747.02963197586, 0.052000000000000005, 0.28800000000000003, 0.9540000000000001, 192.0, 0.0, 0.0, 0.0, 0.0, 0.0, 0.0, 0.0, 0.0, 0.0, 1.7781158575307443E9, 0.0, 2026-05-06 18:04:17.530
98.0, -7842.757742733686, -7828.8996611713965, -7823.781111691131, -8035.653297382987, -62871.076210865525, -58421.69325610319, -80077.27027860527, -141744.32507089677, 0.052000000000000005, 0.28800000000000003, 0.9540000000000001, 192.0, 0.0, 0.0, 0.0, 0.0, 0.0, 0.0, 0.0, 0.0, 0.0, 1.7781158575337055E9, 0.0, 2026-05-06 18:04:17.533
99.0, -7841.461341555279, -7827.670315226354, -7822.484710512724, -8034.535710160221, -62869.80216143157, -58420.35215143587, -80075.9515256824, -141742.98396622945, 0.046, 0.296, 0.9540000000000001, 192.0, 1.0, 112.0, 9.0, 64.0, 29.0, 208.0, 0.0, 0.0, 0.0, 1.7781158575379932E9, 0.0, 2026-05-06 18:04:17.537
100.0, -7840.500216543701, -7826.642134981411, -7821.478882012235, -8033.619288637554, -62868.72927769772, -58419.30161944647, -80074.92334543745, -141741.8440272622, 0.046, 0.296, 0.9540000000000001, 192.0, 0.0, 0.0, 0.0, 0.0, 0.0, 0.0, 0.0, 0.0, 0.0, 1.7781158575417683E9, 0.0, 2026-05-06 18:04:17.541
101.0, -7842.757742733686, -7828.944364660307, -7823.73640820222, -8035.832111338629, -62870.87504516543, -58421.58149738092, -80077.18087162744, -141744.07920170776, 0.046, 0.296, 0.9540000000000001, 192.0, 0.0, 0.0, 0.0, 0.0, 0.0, 0.0, 0.0, 0.0, 0.0, 1.7781158575459964E9, 0.0, 2026-05-06 18:04:17.545
102.0, -7845.50700730169, -7831.671277483854, -7826.485672770224, -8038.514320673266, -62873.512551011154, -58424.151947993276, -80079.93013619544, -141746.694355809, 0.046, 0.296, 0.9540000000000001, 192.0, 0.0, 0.0, 0.0, 0.0, 0.0, 0.0, 0.0, 0.0, 0.0, 1.7781158575498333E9, 0.0, 2026-05-06 18:04:17.549
103.0, -7846.065800913072, -7832.230071095237, -7826.932707659329, -8039.006059051283, -62874.00428938917, -58424.59898288238, -80080.3548193401, -141747.14139069812, 0.046, 0.296, 0.9540000000000001, 192.0, 0.0, 0.0, 0.0, 0.0, 0.0, 0.0, 0.0, 0.0, 0.0, 1.7781158575537364E9, 0.0, 2026-05-06 18:04:17.553
104.0, -7844.79175147912, -7830.97837340574, -7825.725713458743, -8037.754361361785, -62872.70788821077, -58423.302581703974, -80079.08076990614, -141745.82263777527, 0.046, 0.296, 0.9540000000000001, 192.0, 0.0, 0.0, 0.0, 0.0, 0.0, 0.0, 0.0, 0.0, 0.0, 1.7781158575588756E9, 0.0, 2026-05-06 18:04:17.558
105.0, -7844.702344501298, -7830.866614683464, -7825.613954736466, -8037.709657872875, -62872.57377774403, -58423.14611949279, -80078.96901118387, -141745.62147207517, 0.046, 0.296, 0.9540000000000001, 192.0, 0.0, 0.0, 0.0, 0.0, 0.0, 0.0, 0.0, 0.0, 0.0, 1.7781158575619836E9, 0.0, 2026-05-06 18:04:17.561
106.0, -7847.339850347024, -7833.481768784734, -7828.296164071103, -8040.3918672075115, -62875.16658010085, -58425.694218360695, -80081.4500548184, -141748.3036814098, 0.046, 0.296, 0.9540000000000001, 192.0, 0.0, 0.0, 0.0, 0.0, 0.0, 0.0, 0.0, 0.0, 0.0, 1.7781158575659745E9, 0.0, 2026-05-06 18:04:17.565
107.0, -7849.038582925628, -7835.381667063435, -7830.084303627527, -8042.202358508392, -62876.93236791282, -58427.437654428206, -80083.21584263038, -141750.0024139884, 0.046, 0.296, 0.9540000000000001, 192.0, 0.0, 0.0, 0.0, 0.0, 0.0, 0.0, 0.0, 0.0, 0.0, 1.7781158575697563E9, 0.0, 2026-05-06 18:04:17.569
108.0, -7847.7421817472205, -7834.085265885028, -7828.78790244912, -8040.794198607708, -62875.43480103431, -58426.118901505346, -80081.87473796305, -141748.5495505988, 0.046, 0.296, 0.9540000000000001, 192.0, 0.0, 0.0, 0.0, 0.0, 0.0, 0.0, 0.0, 0.0, 0.0, 1.7781158575737212E9, 0.0, 2026-05-06 18:04:17.573
109.0, -7846.959870691285, -7833.3029548290915, -7828.027943137639, -8040.011887551772, -62874.5407312561, -58425.269535216044, -80080.98066818484, -141747.7001843095, 0.054, 0.3, 0.9560000000000001, 192.0, 1.0, 176.0, 9.0, 96.0, 29.0, 224.0, 0.0, 0.0, 0.0, 1.778115857577862E9, 0.0, 2026-05-06 18:04:17.577
110.0, -7846.512835802178, -7832.811216451075, -7827.558556504078, -8039.453093940389, -62873.91488241135, -58424.643686371295, -80080.37717108455, -141747.02963197586, 0.054, 0.3, 0.9560000000000001, 192.0, 0.0, 0.0, 0.0, 0.0, 0.0, 0.0, 0.0, 0.0, 0.0, 1.778115857581915E9, 0.0, 2026-05-06 18:04:17.581
111.0, -7840.74608573271, -7826.932707659329, -7821.724751201243, -8033.663992126464, -62868.05872536406, -58418.74282583509, -80074.4986622928, -141741.1511231841, 0.054, 0.3, 0.9560000000000001, 192.0, 0.0, 0.0, 0.0, 0.0, 0.0, 0.0, 0.0, 0.0, 0.0, 1.7781158575867567E9, 0.0, 2026-05-06 18:04:17.586
112.0, -7840.321402588058, -7826.575079748044, -7821.344771545502, -8033.239308981813, -62867.61169047496, -58418.27343920153, -80074.16338612598, -141740.7487917839, 0.054, 0.3, 0.9560000000000001, 192.0, 0.0, 0.0, 0.0, 0.0, 0.0, 0.0, 0.0, 0.0, 0.0, 1.7781158575897975E9, 0.0, 2026-05-06 18:04:17.589
113.0, -7843.763571234175, -7830.039600138617, -7824.831643680531, -8036.726181116842, -62871.076210865525, -58421.67090435874, -80077.60555477209, -141744.07920170776, 0.054, 0.3, 0.9560000000000001, 192.0, 0.0, 0.0, 0.0, 0.0, 0.0, 0.0, 0.0, 0.0, 0.0, 1.778115857593788E9, 0.0, 2026-05-06 18:04:17.593
114.0, -7843.674164256355, -7829.950193160796, -7824.809291936075, -8036.726181116842, -62870.96445214325, -58421.51444214755, -80077.51614779427, -141743.945091241, 0.054, 0.3, 0.9560000000000001, 192.0, 0.0, 0.0, 0.0, 0.0, 0.0, 0.0, 0.0, 0.0, 0.0, 1.7781158575977824E9, 0.0, 2026-05-06 18:04:17.597
115.0, -7843.607109022989, -7829.8384344385195, -7824.719884958254, -8036.614422394565, -62870.85269342097, -58421.40268342527, -80077.42674081645, -141743.92273949657, 0.054, 0.3, 0.9560000000000001, 192.0, 0.0, 0.0, 0.0, 0.0, 0.0, 0.0, 0.0, 0.0, 0.0, 1.778115857601859E9, 0.0, 2026-05-06 18:04:17.601
116.0, -7841.416638066368, -7827.603259992989, -7822.417655279358, -8034.312192715668, -62868.48340850871, -58419.122805490835, -80075.03510415973, -141741.57580632876, 0.054, 0.3, 0.9560000000000001, 192.0, 0.0, 0.0, 0.0, 0.0, 0.0, 0.0, 0.0, 0.0, 0.0, 1.7781158576059687E9, 0.0, 2026-05-06 18:04:17.605
117.0, -7841.796617722109, -7828.005591393184, -7822.775283190643, -8034.736875860319, -62868.773981186634, -58419.36867467984, -80075.37038032657, -141741.88873075115, 0.054, 0.3, 0.9560000000000001, 192.0, 0.0, 0.0, 0.0, 0.0, 0.0, 0.0, 0.0, 0.0, 0.0, 1.7781158576118119E9, 0.0, 2026-05-06 18:04:17.611
118.0, -7840.522568288156, -7826.731541959231, -7821.456530267779, -8033.485178170822, -62867.47758000822, -58418.049921756974, -80074.00692391479, -141740.43586736155, 0.054, 0.3, 0.9560000000000001, 192.0, 0.0, 0.0, 0.0, 0.0, 0.0, 0.0, 0.0, 0.0, 0.0, 1.778115857614776E9, 0.0, 2026-05-06 18:04:17.614
119.0, -7839.31557408757, -7825.591602992011, -7820.338943045014, -8032.278183970236, -62866.315289296545, -58416.97703802312, -80072.82228145866, -141739.16181792758, 0.054, 0.3, 0.9560000000000001, 192.0, 0.0, 0.0, 0.0, 0.0, 0.0, 0.0, 0.0, 0.0, 0.0, 1.7781158576179583E9, 0.0, 2026-05-06 18:04:17.617
120.0, -7841.438989810824, -7827.670315226354, -7822.417655279358, -8034.423951437945, -62868.25989106416, -58418.899288046276, -80074.76688322627, -141741.195826673, 0.046, 0.302, 0.9560000000000001, 192.0, 1.0, 112.0, 9.0, 112.0, 29.0, 224.0, 0.0, 0.0, 0.0, 1.7781158576217673E9, 0.0, 2026-05-06 18:04:17.621
121.0, -7841.2825275996365, -7827.446797781801, -7822.238841323715, -8034.267489226758, -62867.946966641786, -58418.496956646086, -80074.47631054834, -141740.81584701728, 0.046, 0.302, 0.9560000000000001, 192.0, 0.0, 0.0, 0.0, 0.0, 0.0, 0.0, 0.0, 0.0, 0.0, 1.7781158576259155E9, 0.0, 2026-05-06 18:04:17.625
122.0, -7840.321402588058, -7826.485672770224, -7821.344771545502, -8033.35106770409, -62866.98584163021, -58417.49112814559, -80073.58224077013, -141739.87707375016, 0.046, 0.302, 0.9560000000000001, 192.0, 0.0, 0.0, 0.0, 0.0, 0.0, 0.0, 0.0, 0.0, 0.0, 1.7781158576298647E9, 0.0, 2026-05-06 18:04:17.629
123.0, -7842.26600435567, -7828.45262628229, -7823.244669824204, -8035.139207260515, -62868.81868467554, -58419.34632293539, -80075.37038032657, -141741.66521330658, 0.046, 0.302, 0.9560000000000001, 192.0, 0.0, 0.0, 0.0, 0.0, 0.0, 0.0, 0.0, 0.0, 0.0, 1.778115857633946E9, 0.0, 2026-05-06 18:04:17.633
124.0, -7844.054143912094, -7830.3078210720805, -7825.032809380628, -8036.994402050305, -62870.60682423197, -58421.11211074735, -80077.15851988299, -141743.453352863, 0.046, 0.302, 0.9560000000000001, 192.0, 0.0, 0.0, 0.0, 0.0, 0.0, 0.0, 0.0, 0.0, 0.0, 1.7781158576380093E9, 0.0, 2026-05-06 18:04:17.638
125.0, -7843.204777622793, -7829.480806527235, -7824.094036113505, -8036.189739249914, -62869.623347475936, -58420.21804096914, -80076.26445010478, -141742.53693134035, 0.046, 0.302, 0.9560000000000001, 192.0, 0.0, 0.0, 0.0, 0.0, 0.0, 0.0, 0.0, 0.0, 0.0, 1.7781158576418328E9, 0.0, 2026-05-06 18:04:17.641
126.0, -7841.662507255377, -7827.938536159818, -7822.529414001634, -8034.602765393587, -62868.03637361961, -58418.72047409064, -80074.61042101508, -141740.92760573956, 0.046, 0.302, 0.9560000000000001, 192.0, 0.0, 0.0, 0.0, 0.0, 0.0, 0.0, 0.0, 0.0, 0.0, 1.7781158576448944E9, 0.0, 2026-05-06 18:04:17.644
127.0, -7842.087190400028, -7828.229108837737, -7822.819986679553, -8034.893338071506, -62868.282242808615, -58418.94399153519, -80074.87864194854, -141741.1511231841, 0.046, 0.302, 0.9560000000000001, 192.0, 0.0, 0.0, 0.0, 0.0, 0.0, 0.0, 0.0, 0.0, 0.0, 1.7781158576488934E9, 0.0, 2026-05-06 18:04:17.648
128.0, -7841.617803766466, -7827.715018715266, -7822.372951790447, -8034.468654926855, -62867.74580094169, -58418.38519792381, -80074.4986622928, -141740.59232957274, 0.046, 0.302, 0.9560000000000001, 192.0, 0.0, 0.0, 0.0, 0.0, 0.0, 0.0, 0.0, 0.0, 0.0, 1.7781158576538715E9, 0.0, 2026-05-06 18:04:17.653
129.0, -7841.014306666173, -7827.156225103882, -7821.814158179064, -8033.976916548839, -62867.164655585846, -58417.75934907906, -80073.93986868142, -141740.1005911947, 0.046, 0.302, 0.9560000000000001, 192.0, 0.0, 0.0, 0.0, 0.0, 0.0, 0.0, 0.0, 0.0, 0.0, 1.7781158576578264E9, 0.0, 2026-05-06 18:04:17.657
130.0, -7841.841321211019, -7827.916184415363, -7822.596469235, -8034.714524115864, -62867.857559663964, -58418.38519792381, -80074.58806927063, -141740.81584701728, 0.038, 0.294, 0.9580000000000001, 192.0, 1.0, 48.0, 9.0, 48.0, 29.0, 240.0, 0.0, 0.0, 0.0, 1.7781158576619253E9, 0.0, 2026-05-06 18:04:17.661
131.0, -7843.629460767444, -7829.749027460698, -7824.362257046969, -8036.502663672289, -62869.66805096484, -58420.19568922469, -80076.42091231595, -141742.5592830848, 0.038, 0.294, 0.9580000000000001, 192.0, 0.0, 0.0, 0.0, 0.0, 0.0, 0.0, 0.0, 0.0, 0.0, 1.7781158576658332E9, 0.0, 2026-05-06 18:04:17.665
132.0, -7844.769399734664, -7830.93366991683, -7825.546899503101, -8037.664954383965, -62870.7409346987, -58421.290924703, -80077.51614779427, -141743.56511158528, 0.038, 0.294, 0.9580000000000001, 192.0, 0.0, 0.0, 0.0, 0.0, 0.0, 0.0, 0.0, 0.0, 0.0, 1.778115857669881E9, 0.0, 2026-05-06 18:04:17.669
133.0, -7845.149379390405, -7831.179539105838, -7825.770416947654, -8037.888471828517, -62870.83034167652, -58421.44738691419, -80077.60555477209, -141743.67687030756, 0.038, 0.294, 0.9580000000000001, 192.0, 0.0, 0.0, 0.0, 0.0, 0.0, 0.0, 0.0, 0.0, 0.0, 1.778115857672914E9, 0.0, 2026-05-06 18:04:17.672
134.0, -7843.964736934274, -7830.0172483941615, -7824.719884958254, -8036.703829372386, -62869.57864398702, -58420.28509620251, -80076.37620882705, -141742.49222785144, 0.038, 0.294, 0.9580000000000001, 192.0, 0.0, 0.0, 0.0, 0.0, 0.0, 0.0, 0.0, 0.0, 0.0, 1.7781158576768773E9, 0.0, 2026-05-06 18:04:17.676
135.0, -7845.2164346237705, -7831.2465943392035, -7825.993934392207, -8037.955527061883, -62870.71858295424, -58421.44738691419, -80077.56085128318, -141743.6098150742, 0.038, 0.294, 0.9580000000000001, 192.0, 0.0, 0.0, 0.0, 0.0, 0.0, 0.0, 0.0, 0.0, 0.0, 1.77811585768195E9, 0.0, 2026-05-06 18:04:17.681
136.0, -7845.596414279511, -7831.69362922831, -7826.485672770224, -8038.491968928811, -62871.09856260998, -58421.84971831438, -80077.96318268338, -141744.0121464744, 0.038, 0.294, 0.9580000000000001, 192.0, 0.0, 0.0, 0.0, 0.0, 0.0, 0.0, 0.0, 0.0, 0.0, 1.7781158576859791E9, 0.0, 2026-05-06 18:04:17.685
137.0, -7844.478827056745, -7830.620745494455, -7825.390437291913, -8037.463788683866, -62869.98097538722, -58420.732131091616, -80076.93500243843, -141742.82750401826, 0.038, 0.294, 0.9580000000000001, 192.0, 0.0, 0.0, 0.0, 0.0, 0.0, 0.0, 0.0, 0.0, 0.0, 1.7781158576899185E9, 0.0, 2026-05-06 18:04:17.689
138.0, -7845.17173113486, -7831.425408294846, -7826.0833413700275, -8038.089637528616, -62870.67387946533, -58421.44738691419, -80077.58320302764, -141743.47570460747, 0.038, 0.294, 0.9580000000000001, 192.0, 0.0, 0.0, 0.0, 0.0, 0.0, 0.0, 0.0, 0.0, 0.0, 1.7781158576941116E9, 0.0, 2026-05-06 18:04:17.694
139.0, -7842.713039244776, -7828.922012915852, -7823.579945991033, -8035.4968351718, -62868.10342885297, -58418.787529324, -80075.03510415973, -141740.83819876175, 0.038, 0.294, 0.9580000000000001, 192.0, 0.0, 0.0, 0.0, 0.0, 0.0, 0.0, 0.0, 0.0, 0.0, 1.778115857696987E9, 0.0, 2026-05-06 18:04:17.696
140.0, -7842.489521800223, -7828.564385004567, -7823.289373313114, -8035.228614238336, -62867.76815268614, -58418.496956646086, -80074.6998279929, -141740.61468131718, 0.046, 0.296, 0.9580000000000001, 192.0, 1.0, 112.0, 9.0, 64.0, 29.0, 240.0, 0.0, 0.0, 0.0, 1.7781158577009072E9, 0.0, 2026-05-06 18:04:17.700
141.0, -7841.014306666173, -7827.044466381606, -7821.814158179064, -8033.73104735983, -62866.29293755209, -58416.887631045305, -80073.20226111439, -141739.0500592053, 0.046, 0.296, 0.9580000000000001, 192.0, 0.0, 0.0, 0.0, 0.0, 0.0, 0.0, 0.0, 0.0, 0.0, 1.7781158577051573E9, 0.0, 2026-05-06 18:04:17.705
142.0, -7841.126065388449, -7827.290335570614, -7822.015323879162, -8033.9322130599285, -62866.337641041006, -58416.99938976758, -80073.40342681449, -141739.13946618314, 0.046, 0.296, 0.9580000000000001, 192.0, 0.0, 0.0, 0.0, 0.0, 0.0, 0.0, 0.0, 0.0, 0.0, 1.7781158577101908E9, 0.0, 2026-05-06 18:04:17.710
143.0, -7843.495350300712, -7829.749027460698, -7824.429312280335, -8036.390904950012, -62868.72927769772, -58419.391026424295, -80075.70565649339, -141741.48639935095, 0.046, 0.296, 0.9580000000000001, 192.0, 0.0, 0.0, 0.0, 0.0, 0.0, 0.0, 0.0, 0.0, 0.0, 1.77811585771395E9, 0.0, 2026-05-06 18:04:17.713
144.0, -7842.914204944874, -7829.0784751270385, -7823.758759946676, -8035.765056105263, -62867.991670130694, -58418.60871536836, -80074.85629020409, -141740.81584701728, 0.046, 0.296, 0.9580000000000001, 192.0, 0.0, 0.0, 0.0, 0.0, 0.0, 0.0, 0.0, 0.0, 0.0, 1.7781158577179756E9, 0.0, 2026-05-06 18:04:17.717
145.0, -7843.025963667151, -7829.1902338493155, -7823.892870413408, -8035.854463083085, -62867.90226315287, -58418.60871536836, -80074.85629020409, -141740.77114352837, 0.046, 0.296, 0.9580000000000001, 192.0, 0.0, 0.0, 0.0, 0.0, 0.0, 0.0, 0.0, 0.0, 0.0, 1.7781158577221382E9, 0.0, 2026-05-06 18:04:17.722
146.0, -7842.131893888938, -7828.296164071103, -7822.9093936573745, -8034.82628283814, -62867.00819337466, -58417.66994210124, -80074.00692391479, -141739.8100185168, 0.046, 0.296, 0.9580000000000001, 192.0, 0.0, 0.0, 0.0, 0.0, 0.0, 0.0, 0.0, 0.0, 0.0, 1.778115857725035E9, 0.0, 2026-05-06 18:04:17.725
147.0, -7842.243652611215, -7828.497329771201, -7823.0882076130165, -8035.0498002826935, -62867.00819337466, -58417.714645590146, -80074.05162740369, -141739.83237026125, 0.046, 0.296, 0.9580000000000001, 192.0, 0.0, 0.0, 0.0, 0.0, 0.0, 0.0, 0.0, 0.0, 0.0, 1.7781158577291644E9, 0.0, 2026-05-06 18:04:17.729
148.0, -7843.227129367248, -7829.413751293869, -7824.094036113505, -8036.122684016548, -62867.946966641786, -58418.72047409064, -80075.03510415973, -141740.77114352837, 0.046, 0.296, 0.9580000000000001, 192.0, 0.0, 0.0, 0.0, 0.0, 0.0, 0.0, 0.0, 0.0, 0.0, 1.778115857732994E9, 0.0, 2026-05-06 18:04:17.732
149.0, -7842.690687500321, -7828.944364660307, -7823.490539013213, -8035.586242149621, -62867.3881730304, -58418.11697699034, -80074.54336578172, -141740.2570534059, 0.046, 0.296, 0.9580000000000001, 192.0, 0.0, 0.0, 0.0, 0.0, 0.0, 0.0, 0.0, 0.0, 0.0, 1.7781158577380195E9, 0.0, 2026-05-06 18:04:17.738
150.0, -7842.713039244776, -7829.011419893673, -7823.512890757667, -8035.4968351718, -62867.29876605258, -58418.02757001252, -80074.43160705944, -141740.12294293917, 0.048, 0.28800000000000003, 0.9560000000000001, 192.0, 1.0, 128.0, 9.0, 0.0, 29.0, 224.0, 0.0, 0.0, 0.0, 1.77811585774203E9, 0.0, 2026-05-06 18:04:17.742
151.0, -7845.439952068324, -7831.69362922831, -7826.239803581215, -8038.089637528616, -62869.80216143157, -58420.66507585825, -80076.97970592734, -141742.6039865737, 0.048, 0.28800000000000003, 0.9560000000000001, 192.0, 0.0, 0.0, 0.0, 0.0, 0.0, 0.0, 0.0, 0.0, 0.0, 1.7781158577459643E9, 0.0, 2026-05-06 18:04:17.745
152.0, -7843.36123983398, -7829.5478617606, -7824.161091346871, -8036.055628783182, -62867.70109745277, -58418.54166013499, -80074.81158671518, -141740.32410863927, 0.048, 0.28800000000000003, 0.9560000000000001, 192.0, 0.0, 0.0, 0.0, 0.0, 0.0, 0.0, 0.0, 0.0, 0.0, 1.7781158577500231E9, 0.0, 2026-05-06 18:04:17.750
153.0, -7842.824797967053, -7829.011419893673, -7823.669352968855, -8035.54153866071, -62867.11995209694, -58417.9381630347, -80074.38690357053, -141739.87707375016, 0.048, 0.28800000000000003, 0.9560000000000001, 192.0, 0.0, 0.0, 0.0, 0.0, 0.0, 0.0, 0.0, 0.0, 0.0, 1.7781158577529492E9, 0.0, 2026-05-06 18:04:17.752
154.0, -7846.244614868715, -7832.431236795335, -7827.044466381606, -8038.9837073068275, -62870.49506550969, -58421.290924703, -80077.80672047219, -141743.2968906518, 0.048, 0.28800000000000003, 0.9560000000000001, 192.0, 0.0, 0.0, 0.0, 0.0, 0.0, 0.0, 0.0, 0.0, 0.0, 1.7781158577572596E9, 0.0, 2026-05-06 18:04:17.757
155.0, -7847.228091624748, -7833.325306573547, -7827.938536159818, -8039.833073596129, -62871.25502482117, -58422.1402909923, -80078.56667978367, -141744.16860868558, 0.048, 0.28800000000000003, 0.9560000000000001, 192.0, 0.0, 0.0, 0.0, 0.0, 0.0, 0.0, 0.0, 0.0, 0.0, 1.7781158577610576E9, 0.0, 2026-05-06 18:04:17.761
156.0, -7846.490484057723, -7832.677105984343, -7827.357390803981, -8039.16252126247, -62870.58447248751, -58421.38033168082, -80077.98553442783, -141743.43100111856, 0.048, 0.28800000000000003, 0.9560000000000001, 192.0, 0.0, 0.0, 0.0, 0.0, 0.0, 0.0, 0.0, 0.0, 0.0, 1.7781158577650232E9, 0.0, 2026-05-06 18:04:17.765
157.0, -7846.825760224553, -7833.079437384539, -7827.670315226354, -8039.363686962568, -62870.85269342097, -58421.60384912537, -80078.23140361684, -141743.6545185631, 0.048, 0.28800000000000003, 0.9560000000000001, 192.0, 0.0, 0.0, 0.0, 0.0, 0.0, 0.0, 0.0, 0.0, 0.0, 1.7781158577701504E9, 0.0, 2026-05-06 18:04:17.770
158.0, -7846.177559635349, -7832.431236795335, -7826.955059403785, -8038.73783811782, -62870.1374375984, -58420.79918632498, -80077.53849953873, -141742.8945592516, 0.048, 0.28800000000000003, 0.9560000000000001, 192.0, 0.0, 0.0, 0.0, 0.0, 0.0, 0.0, 0.0, 0.0, 0.0, 1.7781158577742176E9, 0.0, 2026-05-06 18:04:17.774
159.0, -7847.585719536033, -7833.817044951564, -7828.40792279338, -8040.123646274048, -62871.411487032354, -58422.18499448121, -80078.85725246159, -141744.12390519667, 0.048, 0.28800000000000003, 0.9560000000000001, 192.0, 0.0, 0.0, 0.0, 0.0, 0.0, 0.0, 0.0, 0.0, 0.0, 1.778115857777079E9, 0.0, 2026-05-06 18:04:17.777
160.0, -7848.412734080879, -7834.599356007499, -7829.1902338493155, -8040.905957329984, -62872.0373358771, -58422.92260204823, -80079.48310130634, -141744.7944575303, 0.042, 0.28800000000000003, 0.9520000000000001, 192.0, 1.0, 80.0, 9.0, 0.0, 29.0, 192.0, 0.0, 0.0, 0.0, 1.7781158577812207E9, 0.0, 2026-05-06 18:04:17.781
161.0, -7849.753838748198, -7835.873405441453, -7830.508986772179, -8042.314117230669, -62873.378440544424, -58424.17429973773, -80080.71244725138, -141746.09085870872, 0.042, 0.28800000000000003, 0.9520000000000001, 192.0, 0.0, 0.0, 0.0, 0.0, 0.0, 0.0, 0.0, 0.0, 0.0, 1.778115857785006E9, 0.0, 2026-05-06 18:04:17.785
162.0, -7851.74314400472, -7837.795655464609, -7832.431236795335, -8044.236367253825, -62875.1889318453, -58426.05184627198, -80082.61234553008, -141747.99075698742, 0.042, 0.28800000000000003, 0.9520000000000001, 192.0, 0.0, 0.0, 0.0, 0.0, 0.0, 0.0, 0.0, 0.0, 0.0, 1.778115857789156E9, 0.0, 2026-05-06 18:04:17.789
163.0, -7848.636251525432, -7834.666411240865, -7829.391399549413, -8041.129474774537, -62872.059687621564, -58422.833195070416, -80079.48310130634, -141744.77210578587, 0.042, 0.28800000000000003, 0.9520000000000001, 192.0, 0.0, 0.0, 0.0, 0.0, 0.0, 0.0, 0.0, 0.0, 0.0, 1.7781158577932425E9, 0.0, 2026-05-06 18:04:17.793
164.0, -7848.010402680684, -7834.040562396117, -7828.78790244912, -8040.525977674244, -62871.25502482117, -58422.09558750339, -80078.67843850594, -141744.0121464744, 0.042, 0.28800000000000003, 0.9520000000000001, 192.0, 0.0, 0.0, 0.0, 0.0, 0.0, 0.0, 0.0, 0.0, 0.0, 1.7781158577980332E9, 0.0, 2026-05-06 18:04:17.798
165.0, -7848.45743756979, -7834.442893796313, -7829.056123382584, -8040.838902096618, -62871.567949243545, -58422.45321541467, -80079.08076990614, -141744.3027191523, 0.042, 0.28800000000000003, 0.9520000000000001, 192.0, 0.0, 0.0, 0.0, 0.0, 0.0, 0.0, 0.0, 0.0, 0.0, 1.7781158578022866E9, 0.0, 2026-05-06 18:04:17.802
166.0, -7848.45743756979, -7834.487597285223, -7829.12317861595, -8041.017716052261, -62871.567949243545, -58422.56497413695, -80079.12547339505, -141744.32507089677, 0.042, 0.28800000000000003, 0.9520000000000001, 192.0, 0.0, 0.0, 0.0, 0.0, 0.0, 0.0, 0.0, 0.0, 0.0, 1.77811585780526E9, 0.0, 2026-05-06 18:04:17.805
167.0, -7848.166864891871, -7834.197024607304, -7828.832605938031, -8040.749495118796, -62871.1879695878, -58422.117939247844, -80078.72314199485, -141743.96744298548, 0.042, 0.28800000000000003, 0.9520000000000001, 192.0, 0.0, 0.0, 0.0, 0.0, 0.0, 0.0, 0.0, 0.0, 0.0, 1.7781158578101487E9, 0.0, 2026-05-06 18:04:17.810
168.0, -7846.736353246732, -7832.699457728799, -7827.267983826159, -8039.251928240291, -62869.600995731475, -58420.441558413695, -80077.06911290517, -141742.3581173847, 0.042, 0.28800000000000003, 0.9520000000000001, 192.0, 0.0, 0.0, 0.0, 0.0, 0.0, 0.0, 0.0, 0.0, 0.0, 1.7781158578140652E9, 0.0, 2026-05-06 18:04:17.814
169.0, -7844.03179216764, -7830.106655371983, -7824.585774491522, -8036.525015416743, -62866.91878639684, -58417.75934907906, -80074.31984833717, -141739.6982597945, 0.042, 0.28800000000000003, 0.9520000000000001, 192.0, 0.0, 0.0, 0.0, 0.0, 0.0, 0.0, 0.0, 0.0, 0.0, 1.7781158578171632E9, 0.0, 2026-05-06 18:04:17.817
170.0, -7844.814103223575, -7830.821911194553, -7825.368085547458, -8037.262622983769, -62867.61169047496, -58418.496956646086, -80075.1021593931, -141740.43586736155, 0.048, 0.28400000000000003, 0.9540000000000001, 192.0, 1.0, 128.0, 8.0, 224.0, 29.0, 208.0, 0.0, 0.0, 0.0, 1.778115857821143E9, 0.0, 2026-05-06 18:04:17.821
171.0, -7845.104675901494, -7831.000725150196, -7825.569251247555, -8037.486140428322, -62867.790504430595, -58418.65341885727, -80075.25862160428, -141740.48057085046, 0.048, 0.28400000000000003, 0.9540000000000001, 192.0, 0.0, 0.0, 0.0, 0.0, 0.0, 0.0, 0.0, 0.0, 0.0, 1.778115857826122E9, 0.0, 2026-05-06 18:04:17.826
172.0, -7845.104675901494, -7831.179539105838, -7825.770416947654, -8037.732009617331, -62867.87991140842, -58418.60871536836, -80075.3480285821, -141740.59232957274, 0.048, 0.28400000000000003, 0.9540000000000001, 192.0, 0.0, 0.0, 0.0, 0.0, 0.0, 0.0, 0.0, 0.0, 0.0, 1.77811585783007E9, 0.0, 2026-05-06 18:04:17.830
173.0, -7846.669298013366, -7832.699457728799, -7827.357390803981, -8039.2742799847465, -62869.22101607574, -58420.173337480235, -80076.82324371615, -141742.0451929623, 0.048, 0.28400000000000003, 0.9540000000000001, 192.0, 0.0, 0.0, 0.0, 0.0, 0.0, 0.0, 0.0, 0.0, 0.0, 1.7781158578330932E9, 0.0, 2026-05-06 18:04:17.833
174.0, -7849.016231181173, -7835.0016874076955, -7829.525510016145, -8041.420047452456, -62871.3891352879, -58422.36380843685, -80078.96901118387, -141744.12390519667, 0.048, 0.28400000000000003, 0.9540000000000001, 192.0, 0.0, 0.0, 0.0, 0.0, 0.0, 0.0, 0.0, 0.0, 0.0, 1.7781158578376231E9, 0.0, 2026-05-06 18:04:17.837
175.0, -7846.512835802178, -7832.542995517611, -7827.0221146371505, -8038.939003817917, -62868.95279514227, -58419.86041305786, -80076.53267103824, -141741.6428615621, 0.048, 0.28400000000000003, 0.9540000000000001, 192.0, 0.0, 0.0, 0.0, 0.0, 0.0, 0.0, 0.0, 0.0, 0.0, 1.77811585784118E9, 0.0, 2026-05-06 18:04:17.841
176.0, -7848.45743756979, -7834.487597285223, -7828.944364660307, -8040.861253841073, -62870.807989932066, -58421.71560784765, -80078.36551408358, -141743.4980563519, 0.048, 0.28400000000000003, 0.9540000000000001, 192.0, 0.0, 0.0, 0.0, 0.0, 0.0, 0.0, 0.0, 0.0, 0.0, 1.778115857845179E9, 0.0, 2026-05-06 18:04:17.845
177.0, -7847.965699191774, -7833.973507162751, -7828.45262628229, -8040.347163718601, -62870.226844576224, -58421.067407258444, -80077.80672047219, -141742.8051522738, 0.048, 0.28400000000000003, 0.9540000000000001, 192.0, 0.0, 0.0, 0.0, 0.0, 0.0, 0.0, 0.0, 0.0, 0.0, 1.7781158578492064E9, 0.0, 2026-05-06 18:04:17.849
178.0, -7847.2727951136585, -7833.213547851271, -7827.670315226354, -8039.676611384942, -62869.35512654247, -58420.21804096914, -80076.97970592734, -141742.0004894734, 0.048, 0.28400000000000003, 0.9540000000000001, 192.0, 0.0, 0.0, 0.0, 0.0, 0.0, 0.0, 0.0, 0.0, 0.0, 1.778115857853252E9, 0.0, 2026-05-06 18:04:17.853
179.0, -7844.232957867737, -7830.173710605349, -7824.563422747067, -8036.703829372386, -62866.181178829815, -58417.0887967454, -80073.78340647023, -141738.87124524967, 0.048, 0.28400000000000003, 0.9540000000000001, 192.0, 0.0, 0.0, 0.0, 0.0, 0.0, 0.0, 0.0, 0.0, 0.0, 1.7781158578583367E9, 0.0, 2026-05-06 18:04:17.858
180.0, -7844.657641012388, -7830.531338516634, -7825.055161125084, -8037.061457283671, -62866.49410325219, -58417.42407291223, -80074.16338612598, -141739.2065214165, 0.056, 0.292, 0.9560000000000001, 192.0, 1.0, 192.0, 9.0, 32.0, 29.0, 224.0, 0.0, 0.0, 0.0, 1.77811585786224E9, 0.0, 2026-05-06 18:04:17.862
181.0, -7846.401077079902, -7832.207719350782, -7826.709190214777, -8038.648431139998, -62868.10342885297, -58419.100453746374, -80075.81741521567, -141740.77114352837, 0.056, 0.292, 0.9560000000000001, 192.0, 0.0, 0.0, 0.0, 0.0, 0.0, 0.0, 0.0, 0.0, 0.0, 1.778115857865184E9, 0.0, 2026-05-06 18:04:17.865
182.0, -7845.752876490698, -7831.559518761578, -7826.060989625573, -8038.000230550794, -62867.45522826377, -58418.340494434895, -80075.03510415973, -141740.0558877058, 0.056, 0.292, 0.9560000000000001, 192.0, 0.0, 0.0, 0.0, 0.0, 0.0, 0.0, 0.0, 0.0, 0.0, 1.7781158578692381E9, 0.0, 2026-05-06 18:04:17.869
183.0, -7845.842283468519, -7831.6489257394, -7826.150396603393, -8038.0449340397045, -62867.43287651931, -58418.27343920153, -80075.07980764864, -141740.03353596135, 0.056, 0.292, 0.9560000000000001, 192.0, 0.0, 0.0, 0.0, 0.0, 0.0, 0.0, 0.0, 0.0, 0.0, 1.778115857873356E9, 0.0, 2026-05-06 18:04:17.873
184.0, -7845.015268923673, -7830.866614683464, -7825.278678569637, -8037.240271239313, -62866.56115848556, -58417.42407291223, -80074.25279310379, -141739.11711443868, 0.056, 0.292, 0.9560000000000001, 192.0, 0.0, 0.0, 0.0, 0.0, 0.0, 0.0, 0.0, 0.0, 0.0, 1.7781158578773549E9, 0.0, 2026-05-06 18:04:17.877
185.0, -7846.736353246732, -7832.632402495433, -7826.999762892696, -8039.050762540193, -62868.30459455307, -58419.122805490835, -80075.9962291713, -141740.88290225065, 0.056, 0.292, 0.9560000000000001, 192.0, 0.0, 0.0, 0.0, 0.0, 0.0, 0.0, 0.0, 0.0, 0.0, 1.7781158578813832E9, 0.0, 2026-05-06 18:04:17.881
186.0, -7848.144513147416, -7833.995858907207, -7828.296164071103, -8040.414218951967, -62869.66805096484, -58420.441558413695, -80077.27027860527, -141742.2016551735, 0.056, 0.292, 0.9560000000000001, 192.0, 0.0, 0.0, 0.0, 0.0, 0.0, 0.0, 0.0, 0.0, 0.0, 1.7781158578861997E9, 0.0, 2026-05-06 18:04:17.886
187.0, -7848.859768969985, -7834.778169963142, -7829.12317861595, -8041.218881752358, -62870.29389980959, -58421.11211074735, -80077.96318268338, -141742.8498557627, 0.056, 0.292, 0.9560000000000001, 192.0, 0.0, 0.0, 0.0, 0.0, 0.0, 0.0, 0.0, 0.0, 0.0, 1.7781158578894212E9, 0.0, 2026-05-06 18:04:17.889
188.0, -7849.619728281466, -7835.605184507988, -7830.0172483941615, -8041.978841063838, -62870.9868038877, -58421.84971831438, -80078.67843850594, -141743.58746332975, 0.056, 0.292, 0.9560000000000001, 192.0, 0.0, 0.0, 0.0, 0.0, 0.0, 0.0, 0.0, 0.0, 0.0, 1.7781158578934736E9, 0.0, 2026-05-06 18:04:17.893
189.0, -7847.406905580391, -7833.370010062458, -7827.849129181997, -8039.676611384942, -62868.572815486536, -58419.50278514657, -80076.3985605715, -141741.195826673, 0.056, 0.292, 0.9560000000000001, 192.0, 0.0, 0.0, 0.0, 0.0, 0.0, 0.0, 0.0, 0.0, 0.0, 1.778115857897575E9, 0.0, 2026-05-06 18:04:17.897
190.0, -7849.9103009593855, -7835.806350208087, -7830.26311758317, -8042.135303275026, -62870.89739690989, -58421.916773547746, -80078.7454937393, -141743.56511158528, 0.056, 0.292, 0.9560000000000001, 192.0, 0.0, 0.0, 0.0, 0.0, 0.0, 0.0, 0.0, 0.0, 0.0, 1.7781158579011872E9, 0.0, 2026-05-06 18:04:17.901
191.0, -7851.2067021377925, -7836.990992664218, -7831.492463528212, -8043.364649220068, -62872.059687621564, -58423.168471237244, -80079.9524879399, -141744.7497540414, 0.052000000000000005, 0.28800000000000003, 0.9520000000000001, 192.0, 1.0, 160.0, 9.0, 0.0, 29.0, 192.0, 0.0, 0.0, 0.0, 1.7781158579051728E9, 0.0, 2026-05-06 18:04:17.905
192.0, -7851.184350393338, -7837.013344408673, -7831.514815272667, -8043.409352708978, -62871.92557715483, -58423.12376774833, -80079.86308096208, -141744.72740229697, 0.052000000000000005, 0.28800000000000003, 0.9520000000000001, 192.0, 0.0, 0.0, 0.0, 0.0, 0.0, 0.0, 0.0, 0.0, 0.0, 1.778115857909232E9, 0.0, 2026-05-06 18:04:17.909
193.0, -7851.251405626704, -7837.080399642039, -7831.604222250488, -8043.54346317571, -62871.858521921466, -58423.101416003876, -80079.88543270653, -141744.63799531915, 0.052000000000000005, 0.28800000000000003, 0.9520000000000001, 192.0, 0.0, 0.0, 0.0, 0.0, 0.0, 0.0, 0.0, 0.0, 0.0, 1.7781158579145043E9, 0.0, 2026-05-06 18:04:17.914
194.0, -7852.41369633838, -7838.332097331536, -7832.811216451075, -8044.772809120752, -62873.0878678665, -58424.26370671555, -80081.07007516266, -141745.73323079746, 0.052000000000000005, 0.28800000000000003, 0.9520000000000001, 192.0, 0.0, 0.0, 0.0, 0.0, 0.0, 0.0, 0.0, 0.0, 0.0, 1.7781158579254951E9, 0.0, 2026-05-06 18:04:17.925
195.0, -7848.5021410587005, -7834.487597285223, -7828.854957682486, -8040.861253841073, -62869.131609097916, -58420.2403927136, -80077.0467611607, -141741.77697202886, 0.052000000000000005, 0.28800000000000003, 0.9520000000000001, 192.0, 0.0, 0.0, 0.0, 0.0, 0.0, 0.0, 0.0, 0.0, 0.0, 1.7781158579255574E9, 0.0, 2026-05-06 18:04:17.925
196.0, -7850.6032050375, -7836.566309519567, -7830.93366991683, -8043.007021308783, -62871.143266098894, -58422.29675320349, -80079.12547339505, -141743.76627728538, 0.052000000000000005, 0.28800000000000003, 0.9520000000000001, 192.0, 0.0, 0.0, 0.0, 0.0, 0.0, 0.0, 0.0, 0.0, 0.0, 1.7781158579255817E9, 0.0, 2026-05-06 18:04:17.925
197.0, -7851.273757371159, -7837.147454875405, -7831.626573994944, -8043.588166664621, -62871.72441145473, -58422.90025030378, -80079.7960257287, -141744.43682961905, 0.052000000000000005, 0.28800000000000003, 0.9520000000000001, 192.0, 0.0, 0.0, 0.0, 0.0, 0.0, 0.0, 0.0, 0.0, 0.0, 1.7781158579293232E9, 0.0, 2026-05-06 18:04:17.929
198.0, -7849.083286414539, -7834.97933566324, -7829.480806527235, -8041.464750941366, -62869.4892370092, -58420.62037236934, -80077.51614779427, -141742.2016551735, 0.052000000000000005, 0.28800000000000003, 0.9520000000000001, 192.0, 0.0, 0.0, 0.0, 0.0, 0.0, 0.0, 0.0, 0.0, 0.0, 1.778115857935245E9, 0.0, 2026-05-06 18:04:17.935
199.0, -7849.21739688127, -7835.1805013633375, -7829.570213505056, -8041.531806174733, -62869.466885264745, -58420.575668880425, -80077.51614779427, -141742.2463586624, 0.052000000000000005, 0.28800000000000003, 0.9520000000000001, 192.0, 0.0, 0.0, 0.0, 0.0, 0.0, 0.0, 0.0, 0.0, 0.0, 1.778115857938396E9, 0.0, 2026-05-06 18:04:17.938
200.0, -7848.524492803156, -7834.331135074036, -7828.78790244912, -8040.615384652065, -62868.61751897544, -58419.72630259112, -80076.62207801605, -141741.28523365085, 0.052000000000000005, 0.28800000000000003, 0.9520000000000001, 192.0, 0.0, 0.0, 0.0, 0.0, 0.0, 0.0, 0.0, 0.0, 0.0, 1.7781158579423385E9, 0.0, 2026-05-06 18:04:17.942
201.0, -7847.809236980586, -7833.526472273645, -7828.005591393184, -8039.92248057395, -62867.723449197234, -58418.899288046276, -80075.83976696013, -141740.39116387264, 0.058, 0.298, 0.96, 192.0, 1.0, 208.0, 9.0, 80.0, 30.0, 0.0, 0.0, 0.0, 0.0, 1.7781158579452667E9, 0.0, 2026-05-06 18:04:17.945
202.0, -7848.859768969985, -7834.711114729776, -7829.145530360405, -8041.062419541171, -62868.706925953265, -58419.92746829122, -80076.82324371615, -141741.37464062867, 0.058, 0.298, 0.96, 192.0, 0.0, 0.0, 0.0, 0.0, 0.0, 0.0, 0.0, 0.0, 0.0, 1.7781158579492645E9, 0.0, 2026-05-06 18:04:17.949
203.0, -7847.608071280489, -7833.392361806913, -7827.9608879042735, -8039.7436666183075, -62867.32111779704, -58418.56401187945, -80075.39273207102, -141739.98883247245, 0.058, 0.298, 0.96, 192.0, 0.0, 0.0, 0.0, 0.0, 0.0, 0.0, 0.0, 0.0, 0.0, 1.7781158579533176E9, 0.0, 2026-05-06 18:04:17.953
204.0, -7847.161036391382, -7832.990030406718, -7827.446797781801, -8039.386038707023, -62866.896434652386, -58418.09462524589, -80075.05745590419, -141739.43003886106, 0.058, 0.298, 0.96, 192.0, 0.0, 0.0, 0.0, 0.0, 0.0, 0.0, 0.0, 0.0, 0.0, 1.7781158579583452E9, 0.0, 2026-05-06 18:04:17.958
205.0, -7847.116332902472, -7832.900623428896, -7827.446797781801, -8039.296631729202, -62866.78467593011, -58418.00521826807, -80074.92334543745, -141739.2512249054, 0.058, 0.298, 0.96, 192.0, 0.0, 0.0, 0.0, 0.0, 0.0, 0.0, 0.0, 0.0, 0.0, 1.778115857962345E9, 0.0, 2026-05-06 18:04:17.962
206.0, -7847.429257324846, -7833.191196106815, -7827.759722204176, -8039.609556151576, -62866.96348988575, -58418.27343920153, -80075.16921462647, -141739.58650107225, 0.058, 0.298, 0.96, 192.0, 0.0, 0.0, 0.0, 0.0, 0.0, 0.0, 0.0, 0.0, 0.0, 1.7781158579653656E9, 0.0, 2026-05-06 18:04:17.965
207.0, -7849.083286414539, -7834.867576940964, -7829.391399549413, -8041.30828873018, -62868.50576025317, -58419.92746829122, -80076.77854022724, -141741.17347492857, 0.058, 0.298, 0.96, 192.0, 0.0, 0.0, 0.0, 0.0, 0.0, 0.0, 0.0, 0.0, 0.0, 1.7781158579707327E9, 0.0, 2026-05-06 18:04:17.970
208.0, -7848.591548036522, -7834.197024607304, -7828.832605938031, -8040.794198607708, -62867.924614897325, -58419.23456421311, -80076.08563614913, -141740.59232957274, 0.058, 0.298, 0.96, 192.0, 0.0, 0.0, 0.0, 0.0, 0.0, 0.0, 0.0, 0.0, 0.0, 1.778115857973339E9, 0.0, 2026-05-06 18:04:17.973
209.0, -7848.993879436717, -7834.554652518589, -7829.279640827137, -8041.196530007903, -62868.25989106416, -58419.50278514657, -80076.46561580487, -141740.88290225065, 0.058, 0.298, 0.96, 192.0, 0.0, 0.0, 0.0, 0.0, 0.0, 0.0, 0.0, 0.0, 0.0, 1.7781158579764214E9, 0.0, 2026-05-06 18:04:17.976
210.0, -7849.016231181173, -7834.621707751955, -7829.301992571592, -8041.174178263448, -62868.215187575246, -58419.43572991321, -80076.42091231595, -141740.7934952728, 0.058, 0.298, 0.96, 192.0, 0.0, 0.0, 0.0, 0.0, 0.0, 0.0, 0.0, 0.0, 0.0, 1.7781158579813576E9, 0.0, 2026-05-06 18:04:17.981
211.0, -7851.519626560167, -7837.102751386494, -7831.783036206131, -8043.699925386897, -62870.58447248751, -58421.84971831438, -80078.92430769495, -141743.2968906518, 0.062, 0.29, 0.9580000000000001, 192.0, 1.0, 240.0, 9.0, 16.0, 29.0, 240.0, 0.0, 0.0, 0.0, 1.7781158579855292E9, 0.0, 2026-05-06 18:04:17.985
212.0, -7851.452571326801, -7837.035696153128, -7831.6489257394, -8043.655221897987, -62870.40565853187, -58421.82736656992, -80078.76784548377, -141743.14042844065, 0.062, 0.29, 0.9580000000000001, 192.0, 0.0, 0.0, 0.0, 0.0, 0.0, 0.0, 0.0, 0.0, 0.0, 1.7781158579913247E9, 0.0, 2026-05-06 18:04:17.991
213.0, -7849.351507348002, -7834.97933566324, -7829.592565249511, -8041.464750941366, -62868.2375393197, -58419.61454386885, -80076.66678150497, -141740.8605505062, 0.062, 0.29, 0.9580000000000001, 192.0, 0.0, 0.0, 0.0, 0.0, 0.0, 0.0, 0.0, 0.0, 0.0, 1.7781158579943905E9, 0.0, 2026-05-06 18:04:17.994
214.0, -7848.837417225531, -7834.442893796313, -7829.011419893673, -8040.97301256335, -62867.656393963865, -58418.966343279644, -80075.9962291713, -141740.1452946836, 0.062, 0.29, 0.9580000000000001, 192.0, 0.0, 0.0, 0.0, 0.0, 0.0, 0.0, 0.0, 0.0, 0.0, 1.7781158579973855E9, 0.0, 2026-05-06 18:04:17.997
215.0, -7850.2008736373045, -7835.828701952541, -7830.285469327626, -8042.2694137417575, -62868.79633293109, -58420.21804096914, -80077.18087162744, -141741.3969923731, 0.062, 0.29, 0.9580000000000001, 192.0, 0.0, 0.0, 0.0, 0.0, 0.0, 0.0, 0.0, 0.0, 0.0, 1.7781158580003686E9, 0.0, 2026-05-06 18:04:18.000
216.0, -7849.865597470474, -7835.538129274622, -7829.905489671885, -8042.045896297204, -62868.4387050198, -58419.79335782449, -80076.77854022724, -141741.03936446185, 0.062, 0.29, 0.9580000000000001, 192.0, 0.0, 0.0, 0.0, 0.0, 0.0, 0.0, 0.0, 0.0, 0.0, 1.7781158580044947E9, 0.0, 2026-05-06 18:04:18.004
217.0, -7850.26792887067, -7835.895757185907, -7830.419579794358, -8042.425875952945, -62868.79633293109, -58420.2403927136, -80077.29263034972, -141741.3969923731, 0.062, 0.29, 0.9580000000000001, 192.0, 0.0, 0.0, 0.0, 0.0, 0.0, 0.0, 0.0, 0.0, 0.0, 1.7781158580094287E9, 0.0, 2026-05-06 18:04:18.009
218.0, -7850.402039337402, -7836.052219397095, -7830.553690261089, -8042.5599864196765, -62868.773981186634, -58420.32979969142, -80077.35968558308, -141741.32993713976, 0.062, 0.29, 0.9580000000000001, 192.0, 0.0, 0.0, 0.0, 0.0, 0.0, 0.0, 0.0, 0.0, 0.0, 1.7781158580134144E9, 0.0, 2026-05-06 18:04:18.013
219.0, -7848.546844547612, -7834.107617629483, -7828.542033260112, -8040.704791629886, -62866.78467593011, -58418.38519792381, -80075.37038032657, -141739.2959283943, 0.062, 0.29, 0.9580000000000001, 192.0, 0.0, 0.0, 0.0, 0.0, 0.0, 0.0, 0.0, 0.0, 0.0, 1.7781158580173843E9, 0.0, 2026-05-06 18:04:18.017
220.0, -7848.45743756979, -7833.906451929385, -7828.385571048924, -8040.5036259297885, -62866.56115848556, -58418.09462524589, -80075.146862882, -141739.2065214165, 0.062, 0.29, 0.9580000000000001, 192.0, 0.0, 0.0, 0.0, 0.0, 0.0, 0.0, 0.0, 0.0, 0.0, 1.7781158580215282E9, 0.0, 2026-05-06 18:04:18.021
221.0, -7846.60224278, -7832.118312372961, -7826.5974314925, -8038.693134628908, -62864.705963695764, -58416.21707871164, -80073.20226111439, -141737.26191964888, 0.064, 0.296, 0.9560000000000001, 192.0, 2.0, 0.0, 9.0, 64.0, 29.0, 224.0, 0.0, 0.0, 0.0, 1.778115858024413E9, 0.0, 2026-05-06 18:04:18.024
222.0, -7847.295146858114, -7832.878271684441, -7827.290335570614, -8039.453093940389, -62865.30946079606, -58416.887631045305, -80073.89516519252, -141737.91012023808, 0.064, 0.296, 0.9560000000000001, 192.0, 0.0, 0.0, 0.0, 0.0, 0.0, 0.0, 0.0, 0.0, 0.0, 1.7781158580283751E9, 0.0, 2026-05-06 18:04:18.028
223.0, -7847.809236980586, -7833.370010062458, -7827.804425693086, -8039.87777708504, -62865.77884742962, -58417.17820372322, -80074.2974965927, -141738.26774814937, 0.064, 0.296, 0.9560000000000001, 192.0, 0.0, 0.0, 0.0, 0.0, 0.0, 0.0, 0.0, 0.0, 0.0, 1.778115858032488E9, 0.0, 2026-05-06 18:04:18.032
224.0, -7847.719830002765, -7833.191196106815, -7827.715018715266, -8039.721314873853, -62865.46592300724, -58416.99938976758, -80074.07397914815, -141738.08893419374, 0.064, 0.296, 0.9560000000000001, 192.0, 0.0, 0.0, 0.0, 0.0, 0.0, 0.0, 0.0, 0.0, 0.0, 1.7781158580373695E9, 0.0, 2026-05-06 18:04:18.037
225.0, -7848.569196292066, -7834.152321118394, -7828.653791982388, -8040.660088140976, -62866.337641041006, -58417.82640431242, -80074.92334543745, -141738.96065222748, 0.064, 0.296, 0.9560000000000001, 192.0, 0.0, 0.0, 0.0, 0.0, 0.0, 0.0, 0.0, 0.0, 0.0, 1.7781158580416758E9, 0.0, 2026-05-06 18:04:18.041
226.0, -7848.300975358603, -7833.861748440475, -7828.40792279338, -8040.5036259297885, -62866.00236487417, -58417.49112814559, -80074.61042101508, -141738.69243129404, 0.064, 0.296, 0.9560000000000001, 192.0, 0.0, 0.0, 0.0, 0.0, 0.0, 0.0, 0.0, 0.0, 0.0, 1.778115858045448E9, 0.0, 2026-05-06 18:04:18.045
227.0, -7847.898643958408, -7833.370010062458, -7827.871480926452, -8039.944832318406, -62865.421219518335, -58416.97703802312, -80074.11868263707, -141738.02187896037, 0.064, 0.296, 0.9560000000000001, 192.0, 0.0, 0.0, 0.0, 0.0, 0.0, 0.0, 0.0, 0.0, 0.0, 1.7781158580496373E9, 0.0, 2026-05-06 18:04:18.049
228.0, -7850.290280615125, -7835.73929497472, -7830.240765838715, -8042.202358508392, -62867.67874570832, -58419.323971190934, -80076.33150533814, -141740.16764642808, 0.064, 0.296, 0.9560000000000001, 192.0, 0.0, 0.0, 0.0, 0.0, 0.0, 0.0, 0.0, 0.0, 0.0, 1.7781158580527582E9, 0.0, 2026-05-06 18:04:18.052
229.0, -7851.229053882248, -7836.700419986299, -7831.268946083659, -8043.185835264425, -62868.61751897544, -58420.2403927136, -80077.27027860527, -141741.1064196952, 0.064, 0.296, 0.9560000000000001, 192.0, 0.0, 0.0, 0.0, 0.0, 0.0, 0.0, 0.0, 0.0, 0.0, 1.7781158580565195E9, 0.0, 2026-05-06 18:04:18.056
230.0, -7850.469094570768, -7835.9404606748185, -7830.352524560992, -8042.470579441855, -62867.67874570832, -58419.30161944647, -80076.3985605715, -141740.2570534059, 0.064, 0.296, 0.9560000000000001, 192.0, 0.0, 0.0, 0.0, 0.0, 0.0, 0.0, 0.0, 0.0, 0.0, 1.7781158580605662E9, 0.0, 2026-05-06 18:04:18.060
231.0, -7853.397173094413, -7838.890890942918, -7833.3029548290915, -8045.421009709956, -62870.517417254145, -58422.1402909923, -80079.32663909515, -141743.0510214628, 0.058, 0.3, 0.966, 192.0, 1.0, 208.0, 9.0, 96.0, 30.0, 48.0, 0.0, 0.0, 0.0, 1.7781158580655136E9, 0.0, 2026-05-06 18:04:18.065
232.0, -7852.681917271843, -7838.1756351203485, -7832.6547542398885, -8044.772809120752, -62869.80216143157, -58421.44738691419, -80078.52197629475, -141742.33576564025, 0.058, 0.3, 0.966, 192.0, 0.0, 0.0, 0.0, 0.0, 0.0, 0.0, 0.0, 0.0, 0.0, 1.7781158580704985E9, 0.0, 2026-05-06 18:04:18.070
233.0, -7850.312632359581, -7835.716943230265, -7830.26311758317, -8042.358820719579, -62867.34346954149, -58418.899288046276, -80076.08563614913, -141739.8994254946, 0.058, 0.3, 0.966, 192.0, 0.0, 0.0, 0.0, 0.0, 0.0, 0.0, 0.0, 0.0, 0.0, 1.7781158580734959E9, 0.0, 2026-05-06 18:04:18.073
234.0, -7848.45743756979, -7833.817044951564, -7828.273812326648, -8040.25775674078, -62865.264757307144, -58416.887631045305, -80074.07397914815, -141737.7983615158, 0.058, 0.3, 0.966, 192.0, 0.0, 0.0, 0.0, 0.0, 0.0, 0.0, 0.0, 0.0, 0.0, 1.7781158580774665E9, 0.0, 2026-05-06 18:04:18.077
235.0, -7848.233920125237, -7833.705286229288, -7828.0726466265505, -8040.190701507414, -62865.04123986259, -58416.75352057857, -80073.89516519252, -141737.5971958157, 0.058, 0.3, 0.966, 192.0, 0.0, 0.0, 0.0, 0.0, 0.0, 0.0, 0.0, 0.0, 0.0, 1.7781158580806563E9, 0.0, 2026-05-06 18:04:18.080
236.0, -7851.899606215908, -7837.3486205755025, -7831.73833271722, -8043.901091086995, -62868.66222246435, -58420.28509620251, -80077.51614779427, -141741.17347492857, 0.058, 0.3, 0.966, 192.0, 0.0, 0.0, 0.0, 0.0, 0.0, 0.0, 0.0, 0.0, 0.0, 1.7781158580846817E9, 0.0, 2026-05-06 18:04:18.084
237.0, -7851.3184608600695, -7836.78982696412, -7831.0677803835615, -8043.230538753336, -62867.857559663964, -58419.547488635486, -80076.82324371615, -141740.5029225949, 0.058, 0.3, 0.966, 192.0, 0.0, 0.0, 0.0, 0.0, 0.0, 0.0, 0.0, 0.0, 0.0, 1.7781158580884492E9, 0.0, 2026-05-06 18:04:18.088
238.0, -7850.178521892849, -7835.783998463631, -7829.972544905251, -8042.135303275026, -62866.71762069674, -58418.340494434895, -80075.63860126003, -141739.38533537215, 0.058, 0.3, 0.966, 192.0, 0.0, 0.0, 0.0, 0.0, 0.0, 0.0, 0.0, 0.0, 0.0, 1.7781158580934794E9, 0.0, 2026-05-06 18:04:18.093
239.0, -7852.4360480828345, -7837.974469420251, -7832.252422839692, -8044.348125976101, -62868.86338816445, -58420.46391015815, -80077.71731349437, -141741.5087510954, 0.058, 0.3, 0.966, 192.0, 0.0, 0.0, 0.0, 0.0, 0.0, 0.0, 0.0, 0.0, 0.0, 1.7781158580985293E9, 0.0, 2026-05-06 18:04:18.098
240.0, -7852.5031033162, -7838.041524653617, -7832.431236795335, -8044.549291676199, -62868.86338816445, -58420.53096539152, -80077.71731349437, -141741.48639935095, 0.058, 0.3, 0.966, 192.0, 0.0, 0.0, 0.0, 0.0, 0.0, 0.0, 0.0, 0.0, 0.0, 1.778115858101571E9, 0.0, 2026-05-06 18:04:18.101
241.0, -7849.530321303645, -7835.202853107793, -7829.525510016145, -8041.643564897009, -62865.86825440744, -58417.55818337896, -80074.78923497073, -141738.3571551272, 0.056, 0.29, 0.964, 192.0, 1.0, 192.0, 9.0, 16.0, 30.0, 32.0, 0.0, 0.0, 0.0, 1.7781158581056566E9, 0.0, 2026-05-06 18:04:18.105
242.0, -7850.424391081857, -7835.962812419273, -7830.330172816536, -8042.515282930766, -62866.69526895229, -58418.27343920153, -80075.66095300448, -141739.18416967205, 0.056, 0.29, 0.964, 192.0, 0.0, 0.0, 0.0, 0.0, 0.0, 0.0, 0.0, 0.0, 0.0, 1.7781158581085987E9, 0.0, 2026-05-06 18:04:18.108
243.0, -7851.586681793533, -7837.013344408673, -7831.537167017123, -8043.565814920165, -62867.70109745277, -58419.30161944647, -80076.71148499388, -141740.16764642808, 0.056, 0.29, 0.964, 192.0, 0.0, 0.0, 0.0, 0.0, 0.0, 0.0, 0.0, 0.0, 0.0, 1.7781158581125684E9, 0.0, 2026-05-06 18:04:18.112
244.0, -7853.419524838869, -7838.913242687374, -7833.370010062458, -8045.488064943322, -62869.53394049811, -58421.201517725174, -80078.56667978367, -141741.9557859845, 0.056, 0.29, 0.964, 192.0, 0.0, 0.0, 0.0, 0.0, 0.0, 0.0, 0.0, 0.0, 0.0, 1.7781158581165366E9, 0.0, 2026-05-06 18:04:18.116
245.0, -7856.481713829246, -7842.064838655572, -7836.432199052835, -8048.5502539336985, -62872.462019021754, -58424.17429973773, -80081.53946179623, -141744.9062162526, 0.056, 0.29, 0.964, 192.0, 0.0, 0.0, 0.0, 0.0, 0.0, 0.0, 0.0, 0.0, 0.0, 1.7781158581205328E9, 0.0, 2026-05-06 18:04:18.120
246.0, -7855.9005684734075, -7841.483693299734, -7835.985164163729, -8047.991460322316, -62871.81381843255, -58423.459043915165, -80080.91361295148, -141744.28036740786, 0.056, 0.29, 0.964, 192.0, 0.0, 0.0, 0.0, 0.0, 0.0, 0.0, 0.0, 0.0, 0.0, 1.7781158581255713E9, 0.0, 2026-05-06 18:04:18.125
247.0, -7852.994841694217, -7838.533263031633, -7832.922975173352, -8045.018678309761, -62868.706925953265, -58420.37450318033, -80077.69496174992, -141741.12877143966, 0.056, 0.29, 0.964, 192.0, 0.0, 0.0, 0.0, 0.0, 0.0, 0.0, 0.0, 0.0, 0.0, 1.7781158581296008E9, 0.0, 2026-05-06 18:04:18.129
248.0, -7852.234882382737, -7837.795655464609, -7832.051257139595, -8044.25871899828, -62867.90226315287, -58419.525136891025, -80076.84559546062, -141740.32410863927, 0.056, 0.29, 0.964, 192.0, 0.0, 0.0, 0.0, 0.0, 0.0, 0.0, 0.0, 0.0, 0.0, 1.778115858133532E9, 0.0, 2026-05-06 18:04:18.133
249.0, -7854.224187639259, -7839.762608976675, -7834.0629141405725, -8046.3150794881685, -62869.6904027093, -58421.357979936365, -80078.85725246159, -141742.26871040688, 0.056, 0.29, 0.964, 192.0, 0.0, 0.0, 0.0, 0.0, 0.0, 0.0, 0.0, 0.0, 0.0, 1.7781158581368196E9, 0.0, 2026-05-06 18:04:18.136
250.0, -7852.950138205307, -7838.533263031633, -7832.78886470662, -8045.063381798671, -62868.30459455307, -58419.99452352459, -80077.56085128318, -141740.88290225065, 0.056, 0.29, 0.964, 192.0, 0.0, 0.0, 0.0, 0.0, 0.0, 0.0, 0.0, 0.0, 0.0, 1.778115858140669E9, 0.0, 2026-05-06 18:04:18.140
251.0, -7849.619728281466, -7835.202853107793, -7829.525510016145, -8041.732971874831, -62865.01888811814, -58416.61941011184, -80074.09633089261, -141737.5077888379, 0.056, 0.29, 0.964, 192.0, 0.0, 0.0, 0.0, 0.0, 0.0, 0.0, 0.0, 0.0, 0.0, 1.7781158581446269E9, 0.0, 2026-05-06 18:04:18.144
252.0, -7849.396210836913, -7834.93463217433, -7829.145530360405, -8041.375343963546, -62864.61655671794, -58416.19472696719, -80073.76105472578, -141737.03840220434, 0.056, 0.278, 0.9580000000000001, 192.0, 1.0, 192.0, 8.0, 176.0, 29.0, 240.0, 0.0, 0.0, 0.0, 1.7781158581486588E9, 0.0, 2026-05-06 18:04:18.148
253.0, -7851.094943415516, -7836.521606030657, -7830.754855961187, -8042.962317819873, -62866.20353057427, -58417.781700823514, -80075.25862160428, -141738.6030243162, 0.056, 0.278, 0.9580000000000001, 192.0, 0.0, 0.0, 0.0, 0.0, 0.0, 0.0, 0.0, 0.0, 0.0, 1.778115858153543E9, 0.0, 2026-05-06 18:04:18.153
254.0, -7850.625556781955, -7836.052219397095, -7830.3078210720805, -8042.492931186311, -62865.66708870734, -58417.22290721213, -80074.72217973735, -141738.08893419374, 0.056, 0.278, 0.9580000000000001, 192.0, 0.0, 0.0, 0.0, 0.0, 0.0, 0.0, 0.0, 0.0, 0.0, 1.7781158581576955E9, 0.0, 2026-05-06 18:04:18.157
255.0, -7851.452571326801, -7836.990992664218, -7831.313649572569, -8043.431704453434, -62866.49410325219, -58418.09462524589, -80075.59389777112, -141738.78183827185, 0.056, 0.278, 0.9580000000000001, 192.0, 0.0, 0.0, 0.0, 0.0, 0.0, 0.0, 0.0, 0.0, 0.0, 1.7781158581616843E9, 0.0, 2026-05-06 18:04:18.161
0.0, -7852.324289360558, -7837.907414186885, -7832.207719350782, -8044.25871899828, -62867.25406256367, -58418.87693630182, -80076.37620882705, -141739.4970940944, 0.056, 0.278, 0.9580000000000001, 192.0, 0.0, 0.0, 0.0, 0.0, 0.0, 0.0, 0.0, 0.0, 0.0, 1.7781158581647608E9, 0.0, 2026-05-06 18:04:18.164
1.0, -7851.3184608600695, -7836.83453045303, -7831.2465943392035, -8043.3199457311575, -62866.09177185199, -58417.75934907906, -80075.30332509319, -141738.42421036056, 0.056, 0.278, 0.9580000000000001, 192.0, 0.0, 0.0, 0.0, 0.0, 0.0, 0.0, 0.0, 0.0, 0.0, 1.7781158581686757E9, 0.0, 2026-05-06 18:04:18.168
2.0, -7851.854902726996, -7837.3486205755025, -7831.69362922831, -8043.87873934254, -62866.49410325219, -58418.22873571262, -80075.79506347122, -141738.91594873858, 0.056, 0.278, 0.9580000000000001, 192.0, 0.0, 0.0, 0.0, 0.0, 0.0, 0.0, 0.0, 0.0, 0.0, 1.7781158581726696E9, 0.0, 2026-05-06 18:04:18.172
3.0, -7851.139646904427, -7836.722771730754, -7831.0677803835615, -8043.141131775515, -62865.80119917407, -58417.53583163451, -80075.05745590419, -141738.1559894271, 0.056, 0.278, 0.9580000000000001, 192.0, 0.0, 0.0, 0.0, 0.0, 0.0, 0.0, 0.0, 0.0, 0.0, 1.7781158581767452E9, 0.0, 2026-05-06 18:04:18.176
4.0, -7852.704269016299, -7838.242690353715, -7832.587699006522, -8044.661050398476, -62867.25406256367, -58418.9886950241, -80076.48796754933, -141739.6982597945, 0.056, 0.278, 0.9580000000000001, 192.0, 0.0, 0.0, 0.0, 0.0, 0.0, 0.0, 0.0, 0.0, 0.0, 1.7781158581816947E9, 0.0, 2026-05-06 18:04:18.181
5.0, -7852.2572341271925, -7837.661544997877, -7831.984201906229, -8044.236367253825, -62866.672917207834, -58418.42990141272, -80075.9515256824, -141739.0947626942, 0.056, 0.278, 0.9580000000000001, 192.0, 0.0, 0.0, 0.0, 0.0, 0.0, 0.0, 0.0, 0.0, 0.0, 1.7781158581857991E9, 0.0, 2026-05-06 18:04:18.185
6.0, -7851.296109115614, -7836.655716497388, -7830.97837340574, -8043.118780031059, -62865.4882747517, -58417.26761070104, -80074.83393845963, -141737.84306500474, 0.052000000000000005, 0.29, 0.9560000000000001, 192.0, 1.0, 160.0, 9.0, 16.0, 29.0, 224.0, 0.0, 0.0, 0.0, 1.7781158581888015E9, 0.0, 2026-05-06 18:04:18.188
7.0, -7853.21835913877, -7838.533263031633, -7832.922975173352, -8044.951623076395, -62867.32111779704, -58418.94399153519, -80076.64442976052, -141739.6982597945, 0.052000000000000005, 0.29, 0.9560000000000001, 192.0, 0.0, 0.0, 0.0, 0.0, 0.0, 0.0, 0.0, 0.0, 0.0, 1.7781158581926963E9, 0.0, 2026-05-06 18:04:18.192
8.0, -7853.955966705796, -7839.293222343114, -7833.660582740376, -8045.756285876786, -62867.991670130694, -58419.59219212439, -80077.29263034972, -141740.43586736155, 0.052000000000000005, 0.29, 0.9560000000000001, 192.0, 0.0, 0.0, 0.0, 0.0, 0.0, 0.0, 0.0, 0.0, 0.0, 1.778115858196684E9, 0.0, 2026-05-06 18:04:18.196
9.0, -7855.2523678842035, -7840.589623521522, -7834.800521707598, -8047.097390544104, -62869.131609097916, -58420.79918632498, -80078.47727280585, -141741.57580632876, 0.052000000000000005, 0.29, 0.9560000000000001, 192.0, 0.0, 0.0, 0.0, 0.0, 0.0, 0.0, 0.0, 0.0, 0.0, 1.778115858200706E9, 0.0, 2026-05-06 18:04:18.200
10.0, -7853.12895216095, -7838.4662077982675, -7832.744161217709, -8045.130437032037, -62866.896434652386, -58418.58636362391, -80076.28680184923, -141739.38533537215, 0.052000000000000005, 0.29, 0.9560000000000001, 192.0, 0.0, 0.0, 0.0, 0.0, 0.0, 0.0, 0.0, 0.0, 0.0, 1.7781158582046692E9, 0.0, 2026-05-06 18:04:18.204
11.0, -7850.424391081857, -7835.69459148581, -7830.1290071164385, -8042.3811724640345, -62864.25892880666, -58415.90415428927, -80073.58224077013, -141736.68077429305, 0.052000000000000005, 0.29, 0.9560000000000001, 192.0, 0.0, 0.0, 0.0, 0.0, 0.0, 0.0, 0.0, 0.0, 0.0, 1.7781158582086847E9, 0.0, 2026-05-06 18:04:18.208
12.0, -7850.402039337402, -7835.605184507988, -7830.084303627527, -8042.202358508392, -62864.10246659547, -58415.74769207808, -80073.53753728123, -141736.4572568485, 0.052000000000000005, 0.29, 0.9560000000000001, 192.0, 0.0, 0.0, 0.0, 0.0, 0.0, 0.0, 0.0, 0.0, 0.0, 1.778115858213676E9, 0.0, 2026-05-06 18:04:18.213
13.0, -7850.916129459874, -7836.052219397095, -7830.464283283268, -8042.627041653042, -62864.370687528935, -58416.105319989365, -80073.89516519252, -141736.81488475978, 0.052000000000000005, 0.29, 0.9560000000000001, 192.0, 0.0, 0.0, 0.0, 0.0, 0.0, 0.0, 0.0, 0.0, 0.0, 1.77811585821676E9, 0.0, 2026-05-06 18:04:18.216
14.0, -7851.921957960362, -7837.102751386494, -7831.447760039301, -8043.699925386897, -62865.33181254051, -58417.155851978765, -80074.83393845963, -141737.82071326027, 0.052000000000000005, 0.29, 0.9560000000000001, 192.0, 0.0, 0.0, 0.0, 0.0, 0.0, 0.0, 0.0, 0.0, 0.0, 1.7781158582206855E9, 0.0, 2026-05-06 18:04:18.220
15.0, -7854.090077172527, -7839.2261671097485, -7833.593527507011, -8045.823341110152, -62867.45522826377, -58419.256915957565, -80076.89029894953, -141739.9441289835, 0.052000000000000005, 0.29, 0.9560000000000001, 192.0, 0.0, 0.0, 0.0, 0.0, 0.0, 0.0, 0.0, 0.0, 0.0, 1.7781158582247593E9, 0.0, 2026-05-06 18:04:18.224
16.0, -7853.419524838869, -7838.533263031633, -7832.990030406718, -8045.219844009858, -62866.65056546337, -58418.496956646086, -80076.10798789359, -141739.13946618314, 0.058, 0.296, 0.96, 192.0, 1.0, 208.0, 9.0, 64.0, 30.0, 0.0, 0.0, 0.0, 0.0, 1.7781158582287295E9, 0.0, 2026-05-06 18:04:18.228
17.0, -7856.213492895782, -7841.304879344092, -7835.806350208087, -8047.969108577861, -62869.332774798015, -58421.15681423627, -80078.85725246159, -141741.88873075115, 0.058, 0.296, 0.96, 192.0, 0.0, 0.0, 0.0, 0.0, 0.0, 0.0, 0.0, 0.0, 0.0, 1.778115858232729E9, 0.0, 2026-05-06 18:04:18.232
18.0, -7855.073553928561, -7840.12023688796, -7834.644059496411, -8046.873873099551, -62868.05872536406, -58419.90511654677, -80077.51614779427, -141740.59232957274, 0.058, 0.296, 0.96, 192.0, 0.0, 0.0, 0.0, 0.0, 0.0, 0.0, 0.0, 0.0, 0.0, 1.778115858236757E9, 0.0, 2026-05-06 18:04:18.236
19.0, -7853.397173094413, -7838.443856053813, -7832.922975173352, -8045.108085287582, -62866.27058580764, -58418.1393287348, -80075.70565649339, -141738.67007954957, 0.058, 0.296, 0.96, 192.0, 0.0, 0.0, 0.0, 0.0, 0.0, 0.0, 0.0, 0.0, 0.0, 1.7781158582418683E9, 0.0, 2026-05-06 18:04:18.241
20.0, -7852.748972505209, -7837.907414186885, -7832.364181561969, -8044.526939931744, -62865.689440451795, -58417.49112814559, -80075.146862882, -141737.93247198255, 0.058, 0.296, 0.96, 192.0, 0.0, 0.0, 0.0, 0.0, 0.0, 0.0, 0.0, 0.0, 0.0, 1.7781158582447393E9, 0.0, 2026-05-06 18:04:18.244
21.0, -7852.5031033162, -7837.683896742332, -7832.140664117416, -8044.25871899828, -62865.30946079606, -58417.11114848986, -80074.85629020409, -141737.57484407126, 0.058, 0.296, 0.96, 192.0, 0.0, 0.0, 0.0, 0.0, 0.0, 0.0, 0.0, 0.0, 0.0, 1.7781158582487156E9, 0.0, 2026-05-06 18:04:18.248
22.0, -7853.88891147243, -7839.069704898561, -7833.5488240181, -8045.599823665599, -62866.5388067411, -58418.40754966826, -80076.10798789359, -141738.8488935052, 0.058, 0.296, 0.96, 192.0, 0.0, 0.0, 0.0, 0.0, 0.0, 0.0, 0.0, 0.0, 0.0, 1.7781158582527423E9, 0.0, 2026-05-06 18:04:18.252
23.0, -7854.425353339358, -7839.583795021033, -7834.018210651662, -8046.06921029916, -62867.00819337466, -58418.832232812914, -80076.5997262716, -141739.34063188324, 0.058, 0.296, 0.96, 192.0, 0.0, 0.0, 0.0, 0.0, 0.0, 0.0, 0.0, 0.0, 0.0, 1.7781158582568347E9, 0.0, 2026-05-06 18:04:18.256
24.0, -7856.8393417405305, -7842.020135166662, -7836.387495563924, -8048.527902189244, -62869.37747828692, -58421.24622121409, -80079.01371467278, -141741.7099167955, 0.058, 0.296, 0.96, 192.0, 0.0, 0.0, 0.0, 0.0, 0.0, 0.0, 0.0, 0.0, 0.0, 1.7781158582608013E9, 0.0, 2026-05-06 18:04:18.260
25.0, -7854.447705083812, -7839.762608976675, -7834.174672862849, -8046.359782977079, -62867.00819337466, -58418.832232812914, -80076.62207801605, -141739.36298362768, 0.058, 0.296, 0.96, 192.0, 0.0, 0.0, 0.0, 0.0, 0.0, 0.0, 0.0, 0.0, 0.0, 1.778115858264732E9, 0.0, 2026-05-06 18:04:18.264
26.0, -7855.2523678842035, -7840.567271777067, -7834.867576940964, -8047.119742288559, -62867.67874570832, -58419.56984037994, -80077.29263034972, -141740.0558877058, 0.064, 0.294, 0.9540000000000001, 192.0, 2.0, 0.0, 9.0, 48.0, 29.0, 208.0, 0.0, 0.0, 0.0, 1.7781158582698412E9, 0.0, 2026-05-06 18:04:18.269
27.0, -7856.884045229441, -7841.908376444385, -7836.342792075014, -8048.617309167065, -62869.01985037564, -58420.95564853617, -80078.79019722823, -141741.44169586204, 0.064, 0.294, 0.9540000000000001, 192.0, 0.0, 0.0, 0.0, 0.0, 0.0, 0.0, 0.0, 0.0, 0.0, 1.7781158582728612E9, 0.0, 2026-05-06 18:04:18.272
28.0, -7855.542940562123, -7840.634327010433, -7835.0016874076955, -8047.231501010836, -62867.56698698604, -58419.547488635486, -80077.38203732754, -141739.8994254946, 0.064, 0.294, 0.9540000000000001, 192.0, 0.0, 0.0, 0.0, 0.0, 0.0, 0.0, 0.0, 0.0, 0.0, 1.7781158582768123E9, 0.0, 2026-05-06 18:04:18.276
29.0, -7855.677051028854, -7840.74608573271, -7835.135797874427, -8047.2538527552915, -62867.63404221941, -58419.61454386885, -80077.33733383863, -141740.01118421688, 0.064, 0.294, 0.9540000000000001, 192.0, 0.0, 0.0, 0.0, 0.0, 0.0, 0.0, 0.0, 0.0, 0.0, 1.7781158582808173E9, 0.0, 2026-05-06 18:04:18.280
30.0, -7855.9005684734075, -7841.081361899539, -7835.515777530168, -8047.589128922121, -62867.83520791951, -58419.815709568946, -80077.58320302764, -141740.21234991698, 0.064, 0.294, 0.9540000000000001, 192.0, 0.0, 0.0, 0.0, 0.0, 0.0, 0.0, 0.0, 0.0, 0.0, 1.7781158582848213E9, 0.0, 2026-05-06 18:04:18.284
31.0, -7854.64887078391, -7839.852015954497, -7834.21937635176, -8046.359782977079, -62866.5388067411, -58418.54166013499, -80076.26445010478, -141738.8041900163, 0.064, 0.294, 0.9540000000000001, 192.0, 0.0, 0.0, 0.0, 0.0, 0.0, 0.0, 0.0, 0.0, 0.0, 1.778115858288883E9, 0.0, 2026-05-06 18:04:18.288
32.0, -7854.604167295, -7839.762608976675, -7834.197024607304, -8046.426838210445, -62866.471751507735, -58418.38519792381, -80076.17504312695, -141738.69243129404, 0.064, 0.294, 0.9540000000000001, 192.0, 0.0, 0.0, 0.0, 0.0, 0.0, 0.0, 0.0, 0.0, 0.0, 1.778115858292918E9, 0.0, 2026-05-06 18:04:18.292
33.0, -7857.1299144184495, -7842.355411333491, -7836.722771730754, -8048.930233589439, -62868.81868467554, -58420.84388981389, -80078.72314199485, -141741.21817841748, 0.064, 0.294, 0.9540000000000001, 192.0, 0.0, 0.0, 0.0, 0.0, 0.0, 0.0, 0.0, 0.0, 0.0, 1.7781158582978668E9, 0.0, 2026-05-06 18:04:18.297
34.0, -7856.0793824290495, -7841.260175855181, -7835.627536252444, -8047.812646366674, -62867.656393963865, -58419.61454386885, -80077.58320302764, -141739.98883247245, 0.064, 0.294, 0.9540000000000001, 192.0, 0.0, 0.0, 0.0, 0.0, 0.0, 0.0, 0.0, 0.0, 0.0, 1.7781158583008075E9, 0.0, 2026-05-06 18:04:18.300
35.0, -7853.441876583323, -7838.510911287179, -7832.922975173352, -8045.108085287582, -62864.929481140316, -58416.865279300844, -80074.81158671518, -141737.1501609266, 0.064, 0.294, 0.9540000000000001, 192.0, 0.0, 0.0, 0.0, 0.0, 0.0, 0.0, 0.0, 0.0, 0.0, 1.7781158583038557E9, 0.0, 2026-05-06 18:04:18.303
36.0, -7852.368992849469, -7837.415675808868, -7831.783036206131, -8043.945794575906, -62863.76719042864, -58415.74769207808, -80073.60459251459, -141735.8984632371, 0.054, 0.29, 0.9580000000000001, 192.0, 1.0, 176.0, 9.0, 16.0, 29.0, 240.0, 0.0, 0.0, 0.0, 1.778115858308889E9, 0.0, 2026-05-06 18:04:18.308
37.0, -7851.251405626704, -7836.2310333527375, -7830.620745494455, -8042.78350386423, -62862.44843750578, -58414.495994388584, -80072.33054308064, -141734.69146903654, 0.054, 0.29, 0.9580000000000001, 192.0, 0.0, 0.0, 0.0, 0.0, 0.0, 0.0, 0.0, 0.0, 0.0, 1.778115858312852E9, 0.0, 2026-05-06 18:04:18.312
38.0, -7851.631385282444, -7836.611013008477, -7830.97837340574, -8043.252890497791, -62862.80606541706, -58414.786567066505, -80072.62111575856, -141735.0043934589, 0.054, 0.29, 0.9580000000000001, 192.0, 0.0, 0.0, 0.0, 0.0, 0.0, 0.0, 0.0, 0.0, 0.0, 1.7781158583171191E9, 0.0, 2026-05-06 18:04:18.317
39.0, -7853.106600416494, -7838.019172909162, -7832.364181561969, -8044.68340214293, -62864.10246659547, -58415.971209522635, -80073.93986868142, -141736.32314638176, 0.054, 0.29, 0.9580000000000001, 192.0, 0.0, 0.0, 0.0, 0.0, 0.0, 0.0, 0.0, 0.0, 0.0, 1.7781158583209026E9, 0.0, 2026-05-06 18:04:18.320
40.0, -7851.430219582346, -7836.342792075014, -7830.687800727821, -8042.962317819873, -62862.29197529459, -58414.18306996621, -80072.24113610282, -141734.51265508088, 0.054, 0.29, 0.9580000000000001, 192.0, 0.0, 0.0, 0.0, 0.0, 0.0, 0.0, 0.0, 0.0, 0.0, 1.7781158583248477E9, 0.0, 2026-05-06 18:04:18.324
41.0, -7849.84324572602, -7834.822873452053, -7829.234937338226, -8041.509454430277, -62860.72735318272, -58412.61844785434, -80070.81062445768, -141732.9033294801, 0.054, 0.29, 0.9580000000000001, 192.0, 0.0, 0.0, 0.0, 0.0, 0.0, 0.0, 0.0, 0.0, 0.0, 1.7781158583288882E9, 0.0, 2026-05-06 18:04:18.328
42.0, -7851.832550982542, -7836.78982696412, -7831.268946083659, -8043.4987596867995, -62862.694306694786, -58414.58540136641, -80072.73287448083, -141734.8032277588, 0.054, 0.29, 0.9580000000000001, 192.0, 0.0, 0.0, 0.0, 0.0, 0.0, 0.0, 0.0, 0.0, 0.0, 1.7781158583319557E9, 0.0, 2026-05-06 18:04:18.331
43.0, -7852.883082971941, -7837.795655464609, -7832.207719350782, -8044.526939931744, -62863.56602472854, -58415.56887812244, -80073.58224077013, -141735.78670451485, 0.054, 0.29, 0.9580000000000001, 192.0, 0.0, 0.0, 0.0, 0.0, 0.0, 0.0, 0.0, 0.0, 0.0, 1.7781158583379233E9, 0.0, 2026-05-06 18:04:18.337
44.0, -7850.804370737597, -7835.806350208087, -7830.285469327626, -8042.470579441855, -62861.420257260834, -58413.42311065473, -80071.36941806907, -141733.61858530267, 0.054, 0.29, 0.9580000000000001, 192.0, 0.0, 0.0, 0.0, 0.0, 0.0, 0.0, 0.0, 0.0, 0.0, 1.7781158583408823E9, 0.0, 2026-05-06 18:04:18.340
45.0, -7853.263062627681, -7838.2873938426255, -7832.766512962165, -8044.996326565305, -62863.811893917555, -58415.85945080036, -80073.91751693697, -141736.03257370385, 0.054, 0.29, 0.9580000000000001, 192.0, 0.0, 0.0, 0.0, 0.0, 0.0, 0.0, 0.0, 0.0, 0.0, 1.7781158583448718E9, 0.0, 2026-05-06 18:04:18.344
46.0, -7852.301937616103, -7837.415675808868, -7831.760684461676, -8043.968146320361, -62862.694306694786, -58414.786567066505, -80072.7999297142, -141734.98204171445, 0.054, 0.294, 0.964, 192.0, 1.0, 176.0, 9.0, 48.0, 30.0, 32.0, 0.0, 0.0, 0.0, 1.7781158583489335E9, 0.0, 2026-05-06 18:04:18.348
47.0, -7851.631385282444, -7836.78982696412, -7831.045428639106, -8043.230538753336, -62861.86729214994, -58414.004256010565, -80072.03997040272, -141734.22208240296, 0.054, 0.294, 0.964, 192.0, 0.0, 0.0, 0.0, 0.0, 0.0, 0.0, 0.0, 0.0, 0.0, 1.7781158583519056E9, 0.0, 2026-05-06 18:04:18.351
48.0, -7853.419524838869, -7838.443856053813, -7832.766512962165, -8044.973974820849, -62863.610728217456, -58415.680636844714, -80073.71635123687, -141735.8984632371, 0.054, 0.294, 0.964, 192.0, 0.0, 0.0, 0.0, 0.0, 0.0, 0.0, 0.0, 0.0, 0.0, 1.7781158583559663E9, 0.0, 2026-05-06 18:04:18.355
49.0, -7856.1911411513265, -7841.148417132905, -7835.538129274622, -8047.834998111129, -62866.315289296545, -58418.31814269044, -80076.46561580487, -141738.53596908285, 0.054, 0.294, 0.964, 192.0, 0.0, 0.0, 0.0, 0.0, 0.0, 0.0, 0.0, 0.0, 0.0, 1.7781158583600016E9, 0.0, 2026-05-06 18:04:18.360
50.0, -7855.162960906382, -7840.1649403768715, -7834.487597285223, -8046.896224844007, -62865.264757307144, -58417.20055546767, -80075.32567683765, -141737.41838186007, 0.054, 0.294, 0.964, 192.0, 0.0, 0.0, 0.0, 0.0, 0.0, 0.0, 0.0, 0.0, 0.0, 1.7781158583649404E9, 0.0, 2026-05-06 18:04:18.364
51.0, -7853.017193438673, -7838.086228142528, -7832.431236795335, -8044.795160865207, -62863.09663809498, -58415.07713974442, -80073.13520588103, -141735.22791090346, 0.054, 0.294, 0.964, 192.0, 0.0, 0.0, 0.0, 0.0, 0.0, 0.0, 0.0, 0.0, 0.0, 1.7781158583689978E9, 0.0, 2026-05-06 18:04:18.368
52.0, -7852.100771916005, -7837.102751386494, -7831.559518761578, -8043.87873934254, -62862.06845785004, -58414.09366298839, -80072.15172912499, -141734.17737891406, 0.054, 0.294, 0.964, 192.0, 0.0, 0.0, 0.0, 0.0, 0.0, 0.0, 0.0, 0.0, 0.0, 1.7781158583731115E9, 0.0, 2026-05-06 18:04:18.373
53.0, -7851.631385282444, -7836.678068241843, -7831.134835616927, -8043.431704453434, -62861.53201598311, -58413.55722112146, -80071.61528725807, -141733.5515300693, 0.054, 0.294, 0.964, 192.0, 0.0, 0.0, 0.0, 0.0, 0.0, 0.0, 0.0, 0.0, 0.0, 1.778115858377176E9, 0.0, 2026-05-06 18:04:18.377
54.0, -7852.033716682639, -7837.125103130949, -7831.470111783757, -8043.811684109174, -62861.80023691658, -58413.870145543835, -80072.01761865827, -141733.84210274724, 0.054, 0.294, 0.964, 192.0, 0.0, 0.0, 0.0, 0.0, 0.0, 0.0, 0.0, 0.0, 0.0, 1.7781158583809128E9, 0.0, 2026-05-06 18:04:18.380
55.0, -7853.5536353056, -7838.64502175391, -7832.878271684441, -8045.242195754314, -62863.16369332835, -58415.211250211156, -80073.42577855894, -141735.22791090346, 0.054, 0.294, 0.964, 192.0, 0.0, 0.0, 0.0, 0.0, 0.0, 0.0, 0.0, 0.0, 0.0, 1.7781158583839948E9, 0.0, 2026-05-06 18:04:18.383
56.0, -7851.9666614492735, -7836.968640919762, -7831.2465943392035, -8043.655221897987, -62861.576719472025, -58413.64662809928, -80071.7493977248, -141733.66328879158, 0.052000000000000005, 0.302, 0.9580000000000001, 192.0, 1.0, 160.0, 9.0, 112.0, 29.0, 240.0, 0.0, 0.0, 0.0, 1.7781158583881311E9, 0.0, 2026-05-06 18:04:18.388
57.0, -7850.402039337402, -7835.381667063435, -7829.816082694064, -8042.180006763936, -62860.01209736015, -58412.08200598741, -80070.29653433521, -141732.12101842416, 0.052000000000000005, 0.302, 0.9580000000000001, 192.0, 0.0, 0.0, 0.0, 0.0, 0.0, 0.0, 0.0, 0.0, 0.0, 1.7781158583939517E9, 0.0, 2026-05-06 18:04:18.393
58.0, -7853.419524838869, -7838.354449075991, -7832.78886470662, -8045.152788776492, -62862.828417161516, -58414.920677533235, -80073.15755762548, -141734.89263473664, 0.052000000000000005, 0.302, 0.9580000000000001, 192.0, 0.0, 0.0, 0.0, 0.0, 0.0, 0.0, 0.0, 0.0, 0.0, 1.7781158583980196E9, 0.0, 2026-05-06 18:04:18.398
59.0, -7853.486580072235, -7838.376800820447, -7832.766512962165, -8045.152788776492, -62862.80606541706, -58414.85362229987, -80073.13520588103, -141734.82557950326, 0.052000000000000005, 0.302, 0.9580000000000001, 192.0, 0.0, 0.0, 0.0, 0.0, 0.0, 0.0, 0.0, 0.0, 0.0, 1.7781158584013467E9, 0.0, 2026-05-06 18:04:18.401
60.0, -7850.312632359581, -7835.225204852249, -7829.592565249511, -8041.867082341562, -62859.542710726586, -58411.65732284276, -80069.84949944609, -141731.51752132387, 0.052000000000000005, 0.302, 0.9580000000000001, 192.0, 0.0, 0.0, 0.0, 0.0, 0.0, 0.0, 0.0, 0.0, 0.0, 1.7781158584050322E9, 0.0, 2026-05-06 18:04:18.405
61.0, -7853.419524838869, -7838.26504209817, -7832.6547542398885, -8044.839864354118, -62862.51549273914, -58414.54069787749, -80072.7999297142, -141734.51265508088, 0.052000000000000005, 0.302, 0.9580000000000001, 192.0, 0.0, 0.0, 0.0, 0.0, 0.0, 0.0, 0.0, 0.0, 0.0, 1.7781158584079957E9, 0.0, 2026-05-06 18:04:18.407
62.0, -7853.643042283421, -7838.622670009455, -7832.967678662262, -8045.219844009858, -62862.694306694786, -58414.764215322044, -80073.04579890321, -141734.75852426988, 0.052000000000000005, 0.302, 0.9580000000000001, 192.0, 0.0, 0.0, 0.0, 0.0, 0.0, 0.0, 0.0, 0.0, 0.0, 1.778115858414096E9, 0.0, 2026-05-06 18:04:18.414
63.0, -7851.117295159972, -7836.029867652639, -7830.26311758317, -8042.738800375319, -62860.05680084906, -58412.059654242956, -80070.43064480193, -141732.14337016863, 0.052000000000000005, 0.302, 0.9580000000000001, 192.0, 0.0, 0.0, 0.0, 0.0, 0.0, 0.0, 0.0, 0.0, 0.0, 1.7781158584171195E9, 0.0, 2026-05-06 18:04:18.417
64.0, -7852.883082971941, -7837.773303720153, -7832.118312372961, -8044.504588187288, -62861.777885172116, -58413.71368333265, -80072.12937738054, -141733.7973992583, 0.052000000000000005, 0.302, 0.9580000000000001, 192.0, 0.0, 0.0, 0.0, 0.0, 0.0, 0.0, 0.0, 0.0, 0.0, 1.778115858420032E9, 0.0, 2026-05-06 18:04:18.420
65.0, -7852.592510294022, -7837.5497862756, -7831.939498417319, -8044.25871899828, -62861.420257260834, -58413.46781414364, -80071.83880470262, -141733.5515300693, 0.052000000000000005, 0.302, 0.9580000000000001, 192.0, 0.0, 0.0, 0.0, 0.0, 0.0, 0.0, 0.0, 0.0, 0.0, 1.7781158584251168E9, 0.0, 2026-05-06 18:04:18.425
66.0, -7853.88891147243, -7838.957946176285, -7833.258251340181, -8045.711582387875, -62862.64960320588, -58414.786567066505, -80073.11285413658, -141734.8032277588, 0.052000000000000005, 0.302, 0.9580000000000001, 192.0, 0.0, 0.0, 0.0, 0.0, 0.0, 0.0, 0.0, 0.0, 0.0, 1.778115858429191E9, 0.0, 2026-05-06 18:04:18.429
67.0, -7852.100771916005, -7837.16980661986, -7831.470111783757, -8043.87873934254, -62860.72735318272, -58412.90902053226, -80071.30236283569, -141732.9033294801, 0.05, 0.294, 0.9520000000000001, 192.0, 1.0, 144.0, 9.0, 48.0, 29.0, 192.0, 0.0, 0.0, 0.0, 1.7781158584332333E9, 0.0, 2026-05-06 18:04:18.433
68.0, -7853.441876583323, -7838.376800820447, -7832.677105984343, -8045.0857335431265, -62861.91199563885, -58414.04895949948, -80072.55406052519, -141734.08797193624, 0.05, 0.294, 0.9520000000000001, 192.0, 0.0, 0.0, 0.0, 0.0, 0.0, 0.0, 0.0, 0.0, 0.0, 1.7781158584362423E9, 0.0, 2026-05-06 18:04:18.436
69.0, -7855.118257417472, -7839.963774676773, -7834.442893796313, -8046.628003910542, -62863.476617750726, -58415.70298858917, -80074.09633089261, -141735.63024230365, 0.05, 0.294, 0.9520000000000001, 192.0, 0.0, 0.0, 0.0, 0.0, 0.0, 0.0, 0.0, 0.0, 0.0, 1.7781158584402757E9, 0.0, 2026-05-06 18:04:18.440
70.0, -7851.519626560167, -7836.2310333527375, -7830.844262939008, -8042.872910842051, -62859.72152468223, -58411.99259900959, -80070.31888607967, -141731.78574225734, 0.05, 0.294, 0.9520000000000001, 192.0, 0.0, 0.0, 0.0, 0.0, 0.0, 0.0, 0.0, 0.0, 0.0, 1.778115858444127E9, 0.0, 2026-05-06 18:04:18.444
71.0, -7849.507969559189, -7834.2417280962145, -7828.78790244912, -8040.995364307805, -62857.59810895898, -58409.86918328633, -80068.24017384532, -141729.7517335119, 0.05, 0.294, 0.9520000000000001, 192.0, 0.0, 0.0, 0.0, 0.0, 0.0, 0.0, 0.0, 0.0, 0.0, 1.7781158584480453E9, 0.0, 2026-05-06 18:04:18.448
72.0, -7852.838379483031, -7837.5497862756, -7831.939498417319, -8044.370477720557, -62860.86146364945, -58413.13253797681, -80071.57058376916, -141732.9033294801, 0.05, 0.294, 0.9520000000000001, 192.0, 0.0, 0.0, 0.0, 0.0, 0.0, 0.0, 0.0, 0.0, 0.0, 1.7781158584532065E9, 0.0, 2026-05-06 18:04:18.453
73.0, -7852.368992849469, -7837.16980661986, -7831.470111783757, -8043.92344283145, -62860.34737352698, -58412.64079959879, -80071.01179015778, -141732.43394284655, 0.05, 0.294, 0.9520000000000001, 192.0, 0.0, 0.0, 0.0, 0.0, 0.0, 0.0, 0.0, 0.0, 0.0, 1.7781158584570415E9, 0.0, 2026-05-06 18:04:18.457
74.0, -7852.927786460851, -7837.750951975698, -7832.1853676063265, -8044.482236442833, -62860.839111905, -58413.17724146572, -80071.48117679133, -141732.99273645793, 0.05, 0.294, 0.9520000000000001, 192.0, 0.0, 0.0, 0.0, 0.0, 0.0, 0.0, 0.0, 0.0, 0.0, 1.7781158584611063E9, 0.0, 2026-05-06 18:04:18.461
75.0, -7854.671222528365, -7839.4049810653905, -7833.906451929385, -8046.136265532526, -62862.470789250234, -58414.920677533235, -80073.13520588103, -141734.6020620587, 0.05, 0.294, 0.9520000000000001, 192.0, 0.0, 0.0, 0.0, 0.0, 0.0, 0.0, 0.0, 0.0, 0.0, 1.778115858464082E9, 0.0, 2026-05-06 18:04:18.464
76.0, -7855.319423117569, -7840.07553339905, -7834.487597285223, -8046.78446612173, -62863.16369332835, -58415.39006416679, -80073.69399949242, -141735.11615218117, 0.05, 0.294, 0.9520000000000001, 192.0, 0.0, 0.0, 0.0, 0.0, 0.0, 0.0, 0.0, 0.0, 0.0, 1.778115858468173E9, 0.0, 2026-05-06 18:04:18.468
77.0, -7855.073553928561, -7839.963774676773, -7834.26407984067, -8046.605652166088, -62862.80606541706, -58415.054787999965, -80073.4481303034, -141734.89263473664, 0.05, 0.3, 0.9520000000000001, 192.0, 1.0, 144.0, 9.0, 96.0, 29.0, 192.0, 0.0, 0.0, 0.0, 1.7781158584721231E9, 0.0, 2026-05-06 18:04:18.472
78.0, -7855.632347539944, -7840.366106076969, -7834.755818218687, -8047.052687055193, -62863.20839681726, -58415.39006416679, -80073.91751693697, -141735.22791090346, 0.05, 0.3, 0.9520000000000001, 192.0, 0.0, 0.0, 0.0, 0.0, 0.0, 0.0, 0.0, 0.0, 0.0, 1.7781158584761631E9, 0.0, 2026-05-06 18:04:18.476
79.0, -7856.124085917961, -7840.79078922162, -7835.225204852249, -8047.455018455389, -62863.588376473, -58415.79239556699, -80074.20808961488, -141735.58553881475, 0.05, 0.3, 0.9520000000000001, 192.0, 0.0, 0.0, 0.0, 0.0, 0.0, 0.0, 0.0, 0.0, 0.0, 1.778115858481119E9, 0.0, 2026-05-06 18:04:18.481
80.0, -7856.101734173505, -7840.880196199441, -7835.202853107793, -8047.499721944299, -62863.56602472854, -58415.79239556699, -80074.23044135934, -141735.58553881475, 0.05, 0.3, 0.9520000000000001, 192.0, 0.0, 0.0, 0.0, 0.0, 0.0, 0.0, 0.0, 0.0, 0.0, 1.778115858485109E9, 0.0, 2026-05-06 18:04:18.485
81.0, -7857.241673140726, -7842.020135166662, -7836.320440330558, -8048.662012655976, -62864.661260206856, -58416.93233453421, -80075.3480285821, -141736.7031260375, 0.05, 0.3, 0.9520000000000001, 192.0, 0.0, 0.0, 0.0, 0.0, 0.0, 0.0, 0.0, 0.0, 0.0, 1.7781158584891984E9, 0.0, 2026-05-06 18:04:18.489
82.0, -7857.353431863003, -7842.176597377849, -7836.499254286201, -8048.885530100529, -62864.661260206856, -58416.99938976758, -80075.43743555993, -141736.79253301534, 0.05, 0.3, 0.9520000000000001, 192.0, 0.0, 0.0, 0.0, 0.0, 0.0, 0.0, 0.0, 0.0, 0.0, 1.778115858493214E9, 0.0, 2026-05-06 18:04:18.493
83.0, -7856.437010340334, -7841.260175855181, -7835.560481019078, -8047.969108577861, -62863.63307996191, -58415.85945080036, -80074.38690357053, -141735.697297537, 0.05, 0.3, 0.9520000000000001, 192.0, 0.0, 0.0, 0.0, 0.0, 0.0, 0.0, 0.0, 0.0, 0.0, 1.7781158584972024E9, 0.0, 2026-05-06 18:04:18.497
84.0, -7855.833513240042, -7840.723733988254, -7835.0016874076955, -8047.387963222023, -62862.98487937271, -58415.211250211156, -80073.76105472578, -141735.0490969478, 0.05, 0.3, 0.9520000000000001, 192.0, 0.0, 0.0, 0.0, 0.0, 0.0, 0.0, 0.0, 0.0, 0.0, 1.7781158585021849E9, 0.0, 2026-05-06 18:04:18.502
85.0, -7855.118257417472, -7839.963774676773, -7834.353486818492, -8046.605652166088, -62862.15786482786, -58414.428939155216, -80072.97874366984, -141734.26678589187, 0.05, 0.3, 0.9520000000000001, 192.0, 0.0, 0.0, 0.0, 0.0, 0.0, 0.0, 0.0, 0.0, 0.0, 1.7781158585051253E9, 0.0, 2026-05-06 18:04:18.505
86.0, -7854.894739972919, -7839.650850254399, -7834.107617629483, -8046.3150794881685, -62861.844940405485, -58414.07131124393, -80072.57641226964, -141733.7973992583, 0.05, 0.3, 0.9520000000000001, 192.0, 0.0, 0.0, 0.0, 0.0, 0.0, 0.0, 0.0, 0.0, 0.0, 1.7781158585082555E9, 0.0, 2026-05-06 18:04:18.508
87.0, -7853.687745772332, -7838.399152564902, -7832.855919939986, -8045.0857335431265, -62860.526187482625, -58412.84196529889, -80071.25765934678, -141732.456294591, 0.054, 0.3, 0.9560000000000001, 192.0, 1.0, 176.0, 9.0, 96.0, 29.0, 224.0, 0.0, 0.0, 0.0, 1.7781158585132449E9, 0.0, 2026-05-06 18:04:18.513
88.0, -7854.537112061634, -7839.337925832025, -7833.749989718198, -8045.935099832428, -62861.30849853856, -58413.736035077105, -80072.10702563608, -141733.23860564694, 0.054, 0.3, 0.9560000000000001, 192.0, 0.0, 0.0, 0.0, 0.0, 0.0, 0.0, 0.0, 0.0, 0.0, 1.778115858516244E9, 0.0, 2026-05-06 18:04:18.516
89.0, -7854.738277761731, -7839.516739787668, -7833.928803673841, -8046.225672510347, -62861.4873124942, -58413.82544205493, -80072.12937738054, -141733.3503643692, 0.054, 0.3, 0.9560000000000001, 192.0, 0.0, 0.0, 0.0, 0.0, 0.0, 0.0, 0.0, 0.0, 0.0, 1.7781158585202367E9, 0.0, 2026-05-06 18:04:18.520
90.0, -7854.604167295, -7839.472036298756, -7833.928803673841, -8046.158617276981, -62861.24144330519, -58413.579572865914, -80072.01761865827, -141733.1491986691, 0.054, 0.3, 0.9560000000000001, 192.0, 0.0, 0.0, 0.0, 0.0, 0.0, 0.0, 0.0, 0.0, 0.0, 1.778115858524204E9, 0.0, 2026-05-06 18:04:18.524
91.0, -7854.000670194706, -7838.801483965098, -7833.370010062458, -8045.622175410053, -62860.61559446044, -58412.90902053226, -80071.43647330243, -141732.5009980799, 0.054, 0.3, 0.9560000000000001, 192.0, 0.0, 0.0, 0.0, 0.0, 0.0, 0.0, 0.0, 0.0, 0.0, 1.7781158585282803E9, 0.0, 2026-05-06 18:04:18.528
92.0, -7855.878216728952, -7840.567271777067, -7835.046390896606, -8047.343259733112, -62862.31432703905, -58414.67480834423, -80073.13520588103, -141734.1997306585, 0.054, 0.3, 0.9560000000000001, 192.0, 0.0, 0.0, 0.0, 0.0, 0.0, 0.0, 0.0, 0.0, 0.0, 1.7781158585322437E9, 0.0, 2026-05-06 18:04:18.532
93.0, -7856.571120807067, -7841.215472366271, -7835.716943230265, -8047.969108577861, -62862.78371367261, -58415.23360195561, -80073.69399949242, -141734.73617252544, 0.054, 0.3, 0.9560000000000001, 192.0, 0.0, 0.0, 0.0, 0.0, 0.0, 0.0, 0.0, 0.0, 0.0, 1.7781158585362132E9, 0.0, 2026-05-06 18:04:18.536
94.0, -7855.006498695195, -7839.673201998855, -7834.26407984067, -8046.3150794881685, -62861.19673981628, -58413.53486937701, -80072.06232214718, -141733.03743994684, 0.054, 0.3, 0.9560000000000001, 192.0, 0.0, 0.0, 0.0, 0.0, 0.0, 0.0, 0.0, 0.0, 0.0, 1.778115858541239E9, 0.0, 2026-05-06 18:04:18.541
95.0, -7853.017193438673, -7837.728600231243, -7832.230071095237, -8044.25871899828, -62859.118027581935, -58411.45615714266, -80070.02831340174, -141731.0481346903, 0.054, 0.3, 0.9560000000000001, 192.0, 0.0, 0.0, 0.0, 0.0, 0.0, 0.0, 0.0, 0.0, 0.0, 1.7781158585442393E9, 0.0, 2026-05-06 18:04:18.544
96.0, -7853.106600416494, -7837.795655464609, -7832.252422839692, -8044.4375329539225, -62859.07332409303, -58411.45615714266, -80070.07301689066, -141731.02578294586, 0.054, 0.3, 0.9560000000000001, 192.0, 0.0, 0.0, 0.0, 0.0, 0.0, 0.0, 0.0, 0.0, 0.0, 1.7781158585492935E9, 0.0, 2026-05-06 18:04:18.549
97.0, -7855.677051028854, -7840.410809565879, -7834.867576940964, -8047.075038799649, -62861.643774705386, -58413.98190426611, -80072.62111575856, -141733.5515300693, 0.052000000000000005, 0.294, 0.9540000000000001, 192.0, 1.0, 160.0, 9.0, 48.0, 29.0, 208.0, 0.0, 0.0, 0.0, 1.7781158585523915E9, 0.0, 2026-05-06 18:04:18.552
98.0, -7855.408830095391, -7840.12023688796, -7834.532300774134, -8046.829169610641, -62861.19673981628, -58413.579572865914, -80072.24113610282, -141733.21625390247, 0.052000000000000005, 0.294, 0.9540000000000001, 192.0, 0.0, 0.0, 0.0, 0.0, 0.0, 0.0, 0.0, 0.0, 0.0, 1.7781158585562136E9, 0.0, 2026-05-06 18:04:18.556
99.0, -7855.4311818398455, -7840.07553339905, -7834.532300774134, -8046.695059143908, -62861.152036327374, -58413.49016588809, -80072.12937738054, -141733.01508820237, 0.052000000000000005, 0.294, 0.9540000000000001, 192.0, 0.0, 0.0, 0.0, 0.0, 0.0, 0.0, 0.0, 0.0, 0.0, 1.7781158585602553E9, 0.0, 2026-05-06 18:04:18.560
100.0, -7858.359260363492, -7843.093018900517, -7837.594489764511, -8049.757248134286, -62864.080114851015, -58416.41824441174, -80075.1021593931, -141735.94316672604, 0.052000000000000005, 0.294, 0.9540000000000001, 192.0, 0.0, 0.0, 0.0, 0.0, 0.0, 0.0, 0.0, 0.0, 0.0, 1.7781158585642793E9, 0.0, 2026-05-06 18:04:18.564
101.0, -7858.0686876855725, -7842.802446222598, -7837.281565342137, -8049.4890272008215, -62863.655431706364, -58416.08296824491, -80074.78923497073, -141735.58553881475, 0.052000000000000005, 0.294, 0.9540000000000001, 192.0, 0.0, 0.0, 0.0, 0.0, 0.0, 0.0, 0.0, 0.0, 0.0, 1.778115858569254E9, 0.0, 2026-05-06 18:04:18.569
102.0, -7858.828646997053, -7843.517702045167, -7838.019172909162, -8050.204283023391, -62864.34833578448, -58416.79822406748, -80075.50449079329, -141736.23373940395, 0.052000000000000005, 0.294, 0.9540000000000001, 192.0, 0.0, 0.0, 0.0, 0.0, 0.0, 0.0, 0.0, 0.0, 0.0, 1.7781158585725157E9, 0.0, 2026-05-06 18:04:18.572
103.0, -7856.727583018253, -7841.394286321913, -7835.783998463631, -8048.103219044593, -62862.04610610558, -58414.54069787749, -80073.22461285884, -141734.06562019177, 0.052000000000000005, 0.294, 0.9540000000000001, 192.0, 0.0, 0.0, 0.0, 0.0, 0.0, 0.0, 0.0, 0.0, 0.0, 1.7781158585763104E9, 0.0, 2026-05-06 18:04:18.576
104.0, -7857.532245818645, -7842.26600435567, -7836.611013008477, -8048.952585333895, -62862.85076890598, -58415.25595370006, -80073.96222042588, -141734.71382078098, 0.052000000000000005, 0.294, 0.9540000000000001, 192.0, 0.0, 0.0, 0.0, 0.0, 0.0, 0.0, 0.0, 0.0, 0.0, 1.7781158585802684E9, 0.0, 2026-05-06 18:04:18.580
105.0, -7859.566254564078, -7844.165902634371, -7838.667373498366, -8050.8971871015065, -62864.75066718468, -58417.155851978765, -80075.90682219349, -141736.7031260375, 0.052000000000000005, 0.294, 0.9540000000000001, 192.0, 0.0, 0.0, 0.0, 0.0, 0.0, 0.0, 0.0, 0.0, 0.0, 1.778115858584284E9, 0.0, 2026-05-06 18:04:18.584
106.0, -7860.08034468655, -7844.679992756844, -7839.159111876383, -8051.455980712889, -62865.19770207378, -58417.53583163451, -80076.44326406042, -141737.23956790444, 0.052000000000000005, 0.294, 0.9540000000000001, 192.0, 0.0, 0.0, 0.0, 0.0, 0.0, 0.0, 0.0, 0.0, 0.0, 1.778115858590588E9, 0.0, 2026-05-06 18:04:18.590
107.0, -7857.621652796466, -7842.26600435567, -7836.767475219664, -8049.041992311716, -62862.62725146142, -58415.01008451106, -80073.93986868142, -141734.62441380316, 0.05, 0.292, 0.96, 192.0, 1.0, 144.0, 9.0, 32.0, 30.0, 0.0, 0.0, 0.0, 0.0, 1.7781158585934167E9, 0.0, 2026-05-06 18:04:18.593
108.0, -7859.342737119525, -7843.875329956452, -7838.399152564902, -8050.673669656953, -62864.19187357329, -58416.64176185629, -80075.43743555993, -141736.16668417057, 0.05, 0.292, 0.96, 192.0, 0.0, 0.0, 0.0, 0.0, 0.0, 0.0, 0.0, 0.0, 0.0, 1.7781158585973327E9, 0.0, 2026-05-06 18:04:18.597
109.0, -7857.487542329734, -7842.020135166662, -7836.566309519567, -8048.773771378252, -62862.29197529459, -58414.69716008868, -80073.47048204787, -141734.22208240296, 0.05, 0.292, 0.96, 192.0, 0.0, 0.0, 0.0, 0.0, 0.0, 0.0, 0.0, 0.0, 0.0, 1.7781158586002388E9, 0.0, 2026-05-06 18:04:18.600
110.0, -7857.21932139627, -7841.863672955475, -7836.387495563924, -8048.63966091152, -62861.979050872214, -58414.51834613304, -80073.26931634777, -141733.93150972505, 0.05, 0.292, 0.96, 192.0, 0.0, 0.0, 0.0, 0.0, 0.0, 0.0, 0.0, 0.0, 0.0, 1.7781158586044188E9, 0.0, 2026-05-06 18:04:18.604
111.0, -7857.621652796466, -7842.26600435567, -7836.767475219664, -8049.131399289537, -62862.403734016865, -58414.87597404433, -80073.71635123687, -141734.3561928697, 0.05, 0.292, 0.96, 192.0, 0.0, 0.0, 0.0, 0.0, 0.0, 0.0, 0.0, 0.0, 0.0, 1.7781158586085577E9, 0.0, 2026-05-06 18:04:18.608
112.0, -7855.78880975113, -7840.433161310335, -7834.845225196508, -8047.276204499746, -62860.50383573816, -58412.93137227671, -80071.7493977248, -141732.38923935764, 0.05, 0.292, 0.96, 192.0, 0.0, 0.0, 0.0, 0.0, 0.0, 0.0, 0.0, 0.0, 0.0, 1.7781158586124327E9, 0.0, 2026-05-06 18:04:18.612
113.0, -7853.531283561145, -7838.130931631438, -7832.699457728799, -8045.018678309761, -62858.11219908145, -58410.584439108905, -80069.38011281253, -141729.97525095646, 0.05, 0.292, 0.96, 192.0, 0.0, 0.0, 0.0, 0.0, 0.0, 0.0, 0.0, 0.0, 0.0, 1.778115858616324E9, 0.0, 2026-05-06 18:04:18.616
114.0, -7855.878216728952, -7840.410809565879, -7835.113446129972, -8047.298556244202, -62860.39207701589, -58412.77491006553, -80071.63763900253, -141732.32218412426, 0.05, 0.292, 0.96, 192.0, 0.0, 0.0, 0.0, 0.0, 0.0, 0.0, 0.0, 0.0, 0.0, 1.7781158586205547E9, 0.0, 2026-05-06 18:04:18.620
115.0, -7857.465190585279, -7842.042486911117, -7836.588661264022, -8048.863178356073, -62861.8896438944, -58414.22777345512, -80073.20226111439, -141733.77504751386, 0.05, 0.292, 0.96, 192.0, 0.0, 0.0, 0.0, 0.0, 0.0, 0.0, 0.0, 0.0, 0.0, 1.778115858625462E9, 0.0, 2026-05-06 18:04:18.625
116.0, -7858.292205130126, -7842.8695014559635, -7837.393324064413, -8049.69019290092, -62862.64960320588, -58415.03243625551, -80074.00692391479, -141734.53500682535, 0.05, 0.292, 0.96, 192.0, 0.0, 0.0, 0.0, 0.0, 0.0, 0.0, 0.0, 0.0, 0.0, 1.7781158586283305E9, 0.0, 2026-05-06 18:04:18.628
117.0, -7859.74506851972, -7844.143550889916, -7838.712076987276, -8050.964242334872, -62863.811893917555, -58416.21707871164, -80075.28097334874, -141735.697297537, 0.05, 0.296, 0.9580000000000001, 192.0, 1.0, 144.0, 9.0, 64.0, 29.0, 240.0, 0.0, 0.0, 0.0, 1.7781158586323645E9, 0.0, 2026-05-06 18:04:18.632
118.0, -7861.0638214425835, -7845.462303812779, -7840.142588632416, -8052.3053470021905, -62865.063591607046, -58417.49112814559, -80076.55502278269, -141736.81488475978, 0.05, 0.296, 0.9580000000000001, 192.0, 0.0, 0.0, 0.0, 0.0, 0.0, 0.0, 0.0, 0.0, 0.0, 1.778115858636357E9, 0.0, 2026-05-06 18:04:18.636
119.0, -7861.153228420405, -7845.708173001787, -7840.254347354692, -8052.484160957833, -62865.130646840415, -58417.60288686787, -80076.62207801605, -141737.01605045988, 0.05, 0.296, 0.9580000000000001, 192.0, 0.0, 0.0, 0.0, 0.0, 0.0, 0.0, 0.0, 0.0, 0.0, 1.7781158586404324E9, 0.0, 2026-05-06 18:04:18.640
120.0, -7860.817952253575, -7845.328193346048, -7839.919071187863, -8052.1265330465485, -62864.81772241804, -58417.155851978765, -80076.24209836032, -141736.59136731524, 0.05, 0.296, 0.9580000000000001, 192.0, 0.0, 0.0, 0.0, 0.0, 0.0, 0.0, 0.0, 0.0, 0.0, 1.7781158586443112E9, 0.0, 2026-05-06 18:04:18.644
121.0, -7860.46032434229, -7845.015268923673, -7839.516739787668, -8051.813608624174, -62864.437742762304, -58416.731168834114, -80075.79506347122, -141736.14433242613, 0.05, 0.296, 0.9580000000000001, 192.0, 0.0, 0.0, 0.0, 0.0, 0.0, 0.0, 0.0, 0.0, 0.0, 1.778115858648411E9, 0.0, 2026-05-06 18:04:18.648
122.0, -7861.287338887137, -7845.708173001787, -7840.254347354692, -8052.528864446744, -62865.04123986259, -58417.42407291223, -80076.51031929378, -141736.85958824868, 0.05, 0.296, 0.9580000000000001, 192.0, 0.0, 0.0, 0.0, 0.0, 0.0, 0.0, 0.0, 0.0, 0.0, 1.7781158586533225E9, 0.0, 2026-05-06 18:04:18.653
123.0, -7861.622615053966, -7846.021097424162, -7840.634327010433, -8053.02060282476, -62865.17535032933, -58417.60288686787, -80076.71148499388, -141737.03840220434, 0.05, 0.296, 0.9580000000000001, 192.0, 0.0, 0.0, 0.0, 0.0, 0.0, 0.0, 0.0, 0.0, 0.0, 1.7781158586563272E9, 0.0, 2026-05-06 18:04:18.656
124.0, -7860.147399919916, -7844.590585779022, -7839.2261671097485, -8051.634794668531, -62863.610728217456, -58416.038264755996, -80075.16921462647, -141735.4067248591, 0.05, 0.296, 0.9580000000000001, 192.0, 0.0, 0.0, 0.0, 0.0, 0.0, 0.0, 0.0, 0.0, 0.0, 1.7781158586593733E9, 0.0, 2026-05-06 18:04:18.659
125.0, -7860.706193531299, -7845.104675901494, -7839.717905487765, -8051.970070835361, -62863.92365263983, -58416.41824441174, -80075.63860126003, -141735.87611149266, 0.05, 0.296, 0.9580000000000001, 192.0, 0.0, 0.0, 0.0, 0.0, 0.0, 0.0, 0.0, 0.0, 0.0, 1.778115858664581E9, 0.0, 2026-05-06 18:04:18.664
126.0, -7858.359260363492, -7842.824797967053, -7837.303917086592, -8049.623137667554, -62861.59907121648, -58414.07131124393, -80073.17990936994, -141733.37271611366, 0.05, 0.296, 0.9580000000000001, 192.0, 0.0, 0.0, 0.0, 0.0, 0.0, 0.0, 0.0, 0.0, 0.0, 1.7781158586685023E9, 0.0, 2026-05-06 18:04:18.668
127.0, -7859.320385375069, -7843.830626467541, -7838.242690353715, -8050.584262679132, -62862.5378444836, -58414.9877327666, -80074.02927565924, -141734.26678589187, 0.05, 0.296, 0.9580000000000001, 192.0, 0.0, 0.0, 0.0, 0.0, 0.0, 0.0, 0.0, 0.0, 0.0, 1.7781158586724608E9, 0.0, 2026-05-06 18:04:18.672
128.0, -7858.493370830223, -7843.003611922695, -7837.438027553324, -8049.779599878741, -62861.6884781943, -58414.09366298839, -80073.13520588103, -141733.3503643692, 0.058, 0.28800000000000003, 0.9560000000000001, 192.0, 1.0, 208.0, 9.0, 0.0, 29.0, 224.0, 0.0, 0.0, 0.0, 1.778115858676481E9, 0.0, 2026-05-06 18:04:18.676
129.0, -7858.091039430027, -7842.6012805225, -7837.125103130949, -8049.466675456367, -62861.19673981628, -58413.53486937701, -80072.77757796974, -141732.92568122456, 0.058, 0.28800000000000003, 0.9560000000000001, 192.0, 0.0, 0.0, 0.0, 0.0, 0.0, 0.0, 0.0, 0.0, 0.0, 1.7781158586825745E9, 0.0, 2026-05-06 18:04:18.682
130.0, -7860.706193531299, -7845.328193346048, -7839.717905487765, -8052.104181302093, -62863.744838684186, -58416.08296824491, -80075.28097334874, -141735.4067248591, 0.058, 0.28800000000000003, 0.9560000000000001, 192.0, 0.0, 0.0, 0.0, 0.0, 0.0, 0.0, 0.0, 0.0, 0.0, 1.7781158586854262E9, 0.0, 2026-05-06 18:04:18.685
131.0, -7861.354394120503, -7845.93169044634, -7840.366106076969, -8052.707678402386, -62864.25892880666, -58416.64176185629, -80075.92917393794, -141736.01022195938, 0.058, 0.28800000000000003, 0.9560000000000001, 192.0, 0.0, 0.0, 0.0, 0.0, 0.0, 0.0, 0.0, 0.0, 0.0, 1.7781158586884625E9, 0.0, 2026-05-06 18:04:18.688
132.0, -7859.454495841801, -7843.920033445363, -7838.510911287179, -8050.785428379229, -62862.20256831677, -58414.764215322044, -80073.91751693697, -141733.97621321396, 0.058, 0.28800000000000003, 0.9560000000000001, 192.0, 0.0, 0.0, 0.0, 0.0, 0.0, 0.0, 0.0, 0.0, 0.0, 1.7781158586924365E9, 0.0, 2026-05-06 18:04:18.692
133.0, -7857.17461790736, -7841.662507255377, -7836.2310333527375, -8048.460846955878, -62859.81093166005, -58412.394930409784, -80071.43647330243, -141731.56222481278, 0.058, 0.28800000000000003, 0.9560000000000001, 192.0, 0.0, 0.0, 0.0, 0.0, 0.0, 0.0, 0.0, 0.0, 0.0, 1.7781158586964161E9, 0.0, 2026-05-06 18:04:18.696
